"Maximum force",74.3374,"N"
"Gage length ",1.06712,"mm"
"Strain energy",4.73226,"mJ"
"Deformation at maximum force",0.0982865,"mm"
"Standard travel","Standard force"
"mm","N"
0,0.244617
5.03659e-006,0.247745
1.02818e-005,0.250766
1.56462e-005,0.253742
1.82241e-005,0.256656
2.11746e-005,0.259388
2.43187e-005,0.262027
2.76864e-005,0.26456
3.12626e-005,0.267002
3.20524e-005,0.269382
3.58522e-005,0.271701
3.67984e-005,0.274021
3.7916e-005,0.276249
3.94583e-005,0.278263
4.11421e-005,0.280231
4.32581e-005,0.281978
4.27738e-005,0.283588
4.54411e-005,0.285076
4.8317e-005,0.286464
4.85247e-005,0.287746
4.8901e-005,0.288944
5.24623e-005,0.290012
5.34048e-005,0.290947
5.45075e-005,0.291801
5.59231e-005,0.292507
5.71748e-005,0.293289
5.84638e-005,0.294059
5.98347e-005,0.294788
6.38878e-005,0.295608
6.21816e-005,0.296432
6.32619e-005,0.297294
6.43199e-005,0.298172
6.54077e-005,0.299034
6.64955e-005,0.299896
6.46999e-005,0.30075
6.28596e-005,0.30162
6.37649e-005,0.302566
6.46217e-005,0.303539
6.28559e-005,0.304374
6.41821e-005,0.305122
6.29229e-005,0.305725
6.47409e-005,0.306232
6.37425e-005,0.306713
6.56946e-005,0.307159
6.47483e-005,0.307613
6.67898e-005,0.308021
6.61304e-005,0.308334
6.57672e-005,0.308507
6.83451e-005,0.308655
7.10124e-005,0.308773
7.05058e-005,0.309015
6.99954e-005,0.309259
7.22902e-005,0.309541
7.14967e-005,0.309924
7.0733e-005,0.310285
7.27745e-005,0.310693
7.20369e-005,0.311044
7.41379e-005,0.311421
7.31619e-005,0.311891
7.20667e-005,0.312406
7.10757e-005,0.312879
7.29533e-005,0.313363
7.19698e-005,0.313834
7.11055e-005,0.314241
7.05095e-005,0.314523
7.01295e-005,0.314704
6.96657e-005,0.314923
7.2035e-005,0.315173
7.17295e-005,0.315323
7.1465e-005,0.315448
7.12825e-005,0.315535
7.11833e-005,0.315582
7.41039e-005,0.315574
7.42381e-005,0.315511
7.42547e-005,0.315503
7.41723e-005,0.315543
7.40899e-005,0.315582
7.38254e-005,0.315707
7.35441e-005,0.31584
7.31157e-005,0.316043
7.26687e-005,0.316255
7.21732e-005,0.31649
7.17262e-005,0.316701
7.10817e-005,0.317006
7.03068e-005,0.317375
6.96102e-005,0.317704
6.88987e-005,0.31804
6.82542e-005,0.318347
6.77438e-005,0.31859
6.74775e-005,0.318715
6.73778e-005,0.318763
6.73609e-005,0.31877
6.72287e-005,0.318833
6.72615e-005,0.318818
6.74925e-005,0.318708
6.77402e-005,0.318591
6.80047e-005,0.318466
6.83512e-005,0.318301
6.86157e-005,0.318176
6.88485e-005,0.318066
6.87994e-005,0.318089
6.87002e-005,0.318136
6.84524e-005,0.318253
6.81712e-005,0.318386
6.77092e-005,0.318606
6.71318e-005,0.318879
6.66028e-005,0.31913
6.6139e-005,0.31935
6.56287e-005,0.319593
6.5014e-005,0.319883
6.44701e-005,0.32014
6.3956e-005,0.320384
6.36096e-005,0.320549
6.32948e-005,0.320697
6.32282e-005,0.320729
6.32938e-005,0.320698
6.32114e-005,0.320737
6.33101e-005,0.32069
6.336e-005,0.320667
6.35583e-005,0.320573
6.37399e-005,0.320486
6.40696e-005,0.32033
6.43509e-005,0.320196
6.47476e-005,0.320009
6.49134e-005,0.31993
6.50792e-005,0.319852
6.5244e-005,0.319773
6.50634e-005,0.319859
6.49311e-005,0.319922
6.46834e-005,0.32004
6.44189e-005,0.320165
6.41209e-005,0.320306
6.36925e-005,0.32051
6.31299e-005,0.320775
6.26009e-005,0.321027
6.19751e-005,0.321324
6.13455e-005,0.321622
6.10475e-005,0.321763
6.08976e-005,0.321833
6.09462e-005,0.32181
6.11772e-005,0.321701
6.12936e-005,0.321646
6.16065e-005,0.321497
6.19213e-005,0.321348
5.92987e-005,0.321216
5.96433e-005,0.321051
6.004e-005,0.320863
6.04535e-005,0.320667
6.06677e-005,0.320565
6.08e-005,0.320502
6.06026e-005,0.320596
6.02729e-005,0.320752
5.98929e-005,0.320933
5.94626e-005,0.321136
5.91162e-005,0.321301
5.87511e-005,0.321473
5.85369e-005,0.321575
5.81066e-005,0.321779
5.77434e-005,0.321951
5.72796e-005,0.32217
5.70319e-005,0.322288
5.68503e-005,0.322374
5.68497e-005,0.322374
5.69158e-005,0.322343
5.70974e-005,0.322257
5.72464e-005,0.322187
5.73456e-005,0.32214
5.74611e-005,0.322085
5.75603e-005,0.322038
5.76595e-005,0.321991
5.78746e-005,0.321889
5.81875e-005,0.32174
5.84353e-005,0.321623
5.85522e-005,0.321568
5.87338e-005,0.321481
5.87014e-005,0.321497
5.86518e-005,0.32152
5.84534e-005,0.321614
5.8174e-005,0.321747
5.80409e-005,0.32181
5.77261e-005,0.321959
5.73796e-005,0.322124
5.68171e-005,0.322389
5.65358e-005,0.322523
5.58429e-005,0.322851
5.55282e-005,0.323001
5.50644e-005,0.32322
5.48827e-005,0.323307
5.50141e-005,0.323244
5.50807e-005,0.323213
5.51961e-005,0.323158
5.52953e-005,0.323111
5.55766e-005,0.322978
5.58243e-005,0.322861
5.62527e-005,0.322657
5.65507e-005,0.322516
5.69978e-005,0.322305
5.73945e-005,0.322117
5.75603e-005,0.322038
5.76101e-005,0.322014
5.76597e-005,0.321991
5.74781e-005,0.322076
5.7182e-005,0.322218
5.67852e-005,0.322405
5.64034e-005,0.322586
5.60401e-005,0.322758
5.56266e-005,0.322954
5.52299e-005,0.323142
5.47847e-005,0.323353
5.44867e-005,0.323495
5.41719e-005,0.323643
5.4089e-005,0.323683
5.41384e-005,0.323659
5.42865e-005,0.323589
5.44522e-005,0.323511
5.47652e-005,0.323362
5.4998e-005,0.323252
5.54432e-005,0.323041
5.56909e-005,0.322923
5.58902e-005,0.322829
5.62199e-005,0.322673
5.63866e-005,0.322594
5.65682e-005,0.322508
5.6618e-005,0.322484
5.65687e-005,0.322508
5.63871e-005,0.322593
5.61561e-005,0.322703
5.56606e-005,0.322938
5.52639e-005,0.323127
5.49156e-005,0.323291
5.43382e-005,0.323565
5.39582e-005,0.323746
5.35614e-005,0.323933
5.32131e-005,0.324097
5.29002e-005,0.324246
5.25854e-005,0.324395
5.25844e-005,0.324396
5.26999e-005,0.324341
5.30128e-005,0.324192
5.33444e-005,0.324036
5.38734e-005,0.323786
5.42534e-005,0.323605
5.45011e-005,0.323487
5.47004e-005,0.323393
5.49481e-005,0.323276
5.52294e-005,0.323143
5.5246e-005,0.323135
5.53285e-005,0.323095
5.81597e-005,0.323126
5.78225e-005,0.32329
5.74928e-005,0.323448
5.70458e-005,0.323659
5.67143e-005,0.323816
5.63175e-005,0.324004
5.60214e-005,0.324145
5.56563e-005,0.324317
5.53434e-005,0.324466
5.49801e-005,0.324638
5.46989e-005,0.324771
5.45983e-005,0.324819
5.44828e-005,0.324874
5.46803e-005,0.32478
5.4846e-005,0.324702
5.51254e-005,0.324569
5.55222e-005,0.32438
5.5837e-005,0.324231
5.61834e-005,0.324067
5.64647e-005,0.323934
5.67795e-005,0.323785
5.71762e-005,0.323597
5.74081e-005,0.323487
5.75403e-005,0.323425
5.76894e-005,0.323354
5.75245e-005,0.323432
5.72451e-005,0.323565
5.71776e-005,0.323597
5.68796e-005,0.323738
5.65666e-005,0.323886
5.62034e-005,0.324058
5.58067e-005,0.324247
5.55087e-005,0.324387
5.51287e-005,0.324567
5.46984e-005,0.324771
5.46973e-005,0.324772
5.45157e-005,0.324858
5.43006e-005,0.32496
5.43662e-005,0.324929
5.45814e-005,0.324827
5.47965e-005,0.324725
5.51094e-005,0.324576
5.54075e-005,0.324435
5.58843e-005,0.324208
5.635e-005,0.323989
5.65819e-005,0.323879
5.68463e-005,0.323754
5.70606e-005,0.323652
5.72096e-005,0.323581
5.71937e-005,0.323589
5.69795e-005,0.32369
5.67812e-005,0.323784
5.63509e-005,0.323988
5.58889e-005,0.324208
5.24766e-005,0.32445
5.20407e-005,0.324654
5.16421e-005,0.324842
5.13292e-005,0.324991
5.09157e-005,0.325186
5.06838e-005,0.325296
5.06171e-005,0.325328
5.06667e-005,0.325305
5.10467e-005,0.325125
5.12944e-005,0.325007
5.15924e-005,0.324866
5.20041e-005,0.324671
5.25331e-005,0.324421
5.28479e-005,0.324271
5.31794e-005,0.324115
5.34756e-005,0.323973
5.36255e-005,0.323902
5.37247e-005,0.323855
5.36756e-005,0.323879
5.35931e-005,0.323918
5.36093e-005,0.32391
5.31474e-005,0.324129
5.27674e-005,0.324309
5.24359e-005,0.324466
5.20075e-005,0.324669
5.15939e-005,0.324866
5.12624e-005,0.325022
5.09979e-005,0.325147
5.06682e-005,0.325304
5.05513e-005,0.325359
5.02868e-005,0.325484
5.03856e-005,0.325438
5.05998e-005,0.325336
5.06663e-005,0.325305
5.10799e-005,0.325109
5.13928e-005,0.324961
5.17243e-005,0.324804
5.19227e-005,0.324709
5.22356e-005,0.324561
5.24685e-005,0.324451
5.26668e-005,0.324357
5.29313e-005,0.324232
5.30305e-005,0.324184
5.31297e-005,0.324137
5.31135e-005,0.324145
5.28825e-005,0.324255
5.26348e-005,0.324372
5.22884e-005,0.324536
5.19568e-005,0.324693
5.148e-005,0.32492
5.11633e-005,0.325069
5.06343e-005,0.325319
5.02041e-005,0.325523
4.99228e-005,0.325657
4.96583e-005,0.325783
4.96911e-005,0.325767
4.97736e-005,0.325728
4.99552e-005,0.325642
5.03184e-005,0.325469
5.08287e-005,0.325227
5.11957e-005,0.325055
5.16409e-005,0.324843
5.20711e-005,0.324639
5.24846e-005,0.324443
5.29615e-005,0.324216
5.32446e-005,0.324083
5.34597e-005,0.323981
5.36087e-005,0.32391
5.32139e-005,0.324098
5.28171e-005,0.324286
5.24036e-005,0.324481
5.20888e-005,0.32463
5.153e-005,0.324897
5.10644e-005,0.325117
5.05019e-005,0.325382
5.00399e-005,0.325602
4.96264e-005,0.325797
4.92949e-005,0.325955
4.92616e-005,0.325971
4.9377e-005,0.325916
4.95093e-005,0.325853
4.96085e-005,0.325806
5.00369e-005,0.325603
5.03852e-005,0.325438
5.06832e-005,0.325297
5.10464e-005,0.325125
5.12942e-005,0.325007
5.15587e-005,0.324882
5.1757e-005,0.324788
5.19228e-005,0.32471
5.19889e-005,0.324678
5.20551e-005,0.324647
5.19238e-005,0.324709
5.17915e-005,0.324772
5.14786e-005,0.32492
5.12625e-005,0.325022
5.0998e-005,0.325147
5.07661e-005,0.325257
5.0551e-005,0.325359
5.01393e-005,0.325555
4.98413e-005,0.325696
4.94446e-005,0.325884
4.90814e-005,0.326057
4.86678e-005,0.326252
4.8584e-005,0.326292
4.8435e-005,0.326362
4.85831e-005,0.326292
4.86332e-005,0.326268
4.8798e-005,0.32619
4.90131e-005,0.326088
4.93261e-005,0.325939
4.97563e-005,0.325736
5.03002e-005,0.325479
5.08814e-005,0.325204
5.11775e-005,0.325062
5.43366e-005,0.324937
5.42842e-005,0.324968
5.4185e-005,0.325015
5.39708e-005,0.325116
5.37231e-005,0.325234
5.33766e-005,0.325398
5.29631e-005,0.325594
5.24825e-005,0.325821
5.19536e-005,0.326071
5.15084e-005,0.326284
5.10613e-005,0.326495
5.0862e-005,0.326589
5.05975e-005,0.326714
5.04327e-005,0.326793
5.04979e-005,0.326762
5.07289e-005,0.326652
5.10921e-005,0.326481
5.14553e-005,0.326308
5.17868e-005,0.326152
5.21501e-005,0.325979
5.26139e-005,0.32576
5.28784e-005,0.325634
5.34073e-005,0.325384
5.37706e-005,0.325211
5.39531e-005,0.325125
5.38711e-005,0.325164
5.3656e-005,0.325265
5.34418e-005,0.325367
5.32593e-005,0.325454
5.29128e-005,0.325618
5.24993e-005,0.325813
5.22013e-005,0.325954
5.17244e-005,0.326182
5.13426e-005,0.326361
5.10278e-005,0.326511
5.0862e-005,0.326589
5.06478e-005,0.326691
5.05314e-005,0.326746
5.05477e-005,0.326739
5.08606e-005,0.32659
5.10599e-005,0.326496
5.13729e-005,0.326347
5.17212e-005,0.326183
5.20509e-005,0.326026
5.24811e-005,0.325823
5.27959e-005,0.325674
5.30753e-005,0.32554
5.34404e-005,0.325368
5.36062e-005,0.325289
5.36227e-005,0.325281
5.37051e-005,0.325242
5.34909e-005,0.325344
5.32264e-005,0.325469
5.27962e-005,0.325673
5.23678e-005,0.325876
5.1904e-005,0.326095
5.14737e-005,0.326299
5.08963e-005,0.326572
5.05982e-005,0.326714
5.03831e-005,0.326817
5.01847e-005,0.326911
5.01347e-005,0.326934
5.01016e-005,0.32695
5.03494e-005,0.326833
5.05142e-005,0.326754
5.09277e-005,0.326559
5.14045e-005,0.326332
4.90055e-005,0.326096
4.93594e-005,0.325924
4.95419e-005,0.325837
4.97403e-005,0.325744
4.9906e-005,0.325665
5.01044e-005,0.325571
5.03028e-005,0.325477
5.03194e-005,0.325469
5.01714e-005,0.325539
4.99236e-005,0.325657
4.94766e-005,0.325868
4.90966e-005,0.326048
4.87669e-005,0.326206
4.83534e-005,0.326401
4.80051e-005,0.326566
4.77574e-005,0.326683
4.74929e-005,0.326808
4.72619e-005,0.326918
4.69974e-005,0.327043
4.68652e-005,0.327106
4.67161e-005,0.327177
4.6765e-005,0.327154
4.68642e-005,0.327107
4.68808e-005,0.327099
4.96524e-005,0.327161
5.22005e-005,0.327325
5.44952e-005,0.327615
5.94424e-005,0.328022
6.42704e-005,0.328493
7.45224e-005,0.329126
8.45956e-005,0.329877
9.68742e-005,0.330938
0.000108855,0.332159
0.000123458,0.333494
0.000137703,0.335004
0.000154393,0.336713
0.000170963,0.338506
0.000187414,0.340368
0.000203626,0.342306
0.000222461,0.344396
0.000238316,0.346532
0.000256674,0.348836
0.000274794,0.351263
0.000292675,0.353811
0.00031008,0.356618
0.000329988,0.359563
0.0003493,0.362829
0.00036742,0.366613
0.000387208,0.371007
0.000405328,0.376195
0.00041856,0.382329
0.000435607,0.389349
0.000450687,0.397405
0.000463443,0.406499
0.00047739,0.416387
0.000489609,0.42719
0.00050302,0.438726
0.000515239,0.450811
0.000523405,0.463445
0.000536816,0.476385
0.000549869,0.489507
0.000562923,0.50263
0.000578539,0.515874
0.000597374,0.528997
0.000615971,0.542181
0.00063117,0.555669
0.000648813,0.569341
0.000665979,0.583196
0.000682907,0.597295
0.000704961,0.611578
0.000720696,0.626165
0.000741796,0.640997
0.0007623,0.656072
0.000781851,0.671575
0.000803666,0.687322
0.000824885,0.703435
0.000845389,0.719915
0.000865416,0.736639
0.000887828,0.753484
0.00091012,0.770452
0.000932054,0.787664
0.000953631,0.804998
0.000977473,0.822576
0.00100084,0.84052
0.00102361,0.858587
0.00104888,0.877019
0.00107093,0.895452
0.00109573,0.913885
0.00112029,0.932684
0.00114401,0.951726
0.00117,0.971014
0.00119551,0.990667
0.00121792,1.01032
0.00124307,1.0301
0.00127085,1.04999
0.0012985,1.06989
0.00132556,1.09015
0.00135239,1.11054
0.00138159,1.13105
0.00140722,1.15204
0.00143822,1.17304
0.00146575,1.19452
0.00149234,1.21637
0.00152131,1.23847
0.00154944,1.26093
0.00157984,1.28364
0.00160952,1.30683
0.00163837,1.33039
0.00166626,1.35431
0.00169619,1.37873
0.00172563,1.40326
0.0017546,1.42817
0.00178321,1.45319
0.00181134,1.47834
0.00184186,1.50385
0.00187166,1.52973
0.00189801,1.55585
0.00192352,1.58222
0.00195714,1.60895
0.00198443,1.63605
0.00201662,1.6634
0.00204571,1.69098
0.00207623,1.71918
0.00210913,1.74762
0.00214084,1.77668
0.00217183,1.80622
0.00220473,1.836
0.00223454,1.86603
0.00226624,1.89631
0.00230058,1.92695
0.00233419,1.95783
0.00236447,1.98896
0.00240024,2.02021
0.0024329,2.05146
0.00246509,2.0832
0.00249703,2.11469
0.0025316,2.14667
0.00256236,2.1789
0.0025955,2.21137
0.0026284,2.24384
0.00266083,2.2768
0.00269516,2.31025
0.0027283,2.34394
0.00276096,2.37812
0.00279267,2.41254
0.00282414,2.44745
0.00285776,2.48237
0.00289114,2.51752
0.00292452,2.55268
0.0029598,2.58832
0.00299747,2.62421
0.00303157,2.66034
0.00306542,2.69672
0.00310143,2.73334
0.00313409,2.77021
0.0031689,2.80732
0.00319965,2.84516
0.00323542,2.88324
0.0032676,2.92182
0.00330217,2.96039
0.00333889,2.99946
0.00337537,3.03876
0.00341113,3.07831
0.00344904,3.11811
0.00348671,3.15815
0.00352438,3.19819
0.00356515,3.23798
0.00360616,3.27778
0.00364454,3.31757
0.0036865,3.35688
0.00372608,3.39594
0.00376614,3.43476
0.00381215,3.47358
0.00385292,3.51215
0.00389679,3.55048
0.00393518,3.58881
0.00397881,3.62739
0.0040222,3.66596
0.00406559,3.70478
0.00410803,3.74384
0.00415285,3.78315
0.00419696,3.82294
0.00424107,3.86274
0.00428494,3.90253
0.0043319,3.94208
0.00437911,3.98163
0.00442346,4.02143
0.0044678,4.06098
0.00451501,4.10053
0.00455912,4.14033
0.00460608,4.18012
0.00465234,4.22016
0.00469811,4.26044
0.00474604,4.30097
0.00479372,4.34174
0.00484045,4.383
0.00489243,4.4245
0.00494082,4.46625
0.00498589,4.50824
0.00503667,4.55024
0.00508173,4.59223
0.00512679,4.63422
0.00517447,4.67646
0.00521882,4.71869
0.00526579,4.76142
0.00530918,4.80414
0.0053552,4.84687
0.00540383,4.89008
0.00544818,4.93378
0.00549157,4.97797
0.00553926,5.02289
0.0055805,5.06806
0.00562699,5.11347
0.00567301,5.15912
0.00571497,5.20551
0.00575622,5.2519
0.00579699,5.29877
0.00584038,5.34565
0.00588067,5.39277
0.00592025,5.44013
0.00596221,5.48774
0.00600608,5.53583
0.00604899,5.58417
0.00609096,5.63324
0.00613769,5.68281
0.0061806,5.73261
0.00622566,5.7829
0.00626691,5.83368
0.0063103,5.88471
0.00634988,5.93622
0.00638874,5.98798
0.00643023,6.03998
0.0064679,6.09247
0.00650747,6.14521
0.00654681,6.19819
0.00658496,6.25165
0.00662501,6.30585
0.00666411,6.3603
0.0067025,6.41498
0.00674303,6.47016
0.00678285,6.52582
0.00682171,6.58173
0.00685699,6.63813
0.00689157,6.69477
0.00692781,6.7519
0.00696023,6.80951
0.00699742,6.86762
0.00703319,6.92646
0.00706728,6.98603
0.00710352,7.04584
0.00713857,7.10639
0.00717838,7.16742
0.00721152,7.22895
0.00724967,7.29072
0.00728424,7.35273
0.00732072,7.41523
0.00735338,7.47822
0.00738247,7.54169
0.0074137,7.60517
0.0074466,7.66962
0.00747569,7.73456
0.00750669,7.7995
0.00753685,7.86542
0.00756879,7.93134
0.00759979,7.99824
0.00763007,8.06513
0.00765689,8.13202
0.0076886,8.19941
0.00771399,8.26777
0.00774153,8.33564
0.00777085,8.40449
0.00779899,8.47382
0.00782879,8.54365
0.00786002,8.61445
0.0078903,8.68525
0.00792225,8.75702
0.0079505,8.8288
0.0079803,8.90156
0.00800629,8.9748
0.00803133,9.04804
0.00805886,9.12226
0.00808604,9.19599
0.00811239,9.27021
0.0081379,9.34492
0.00816567,9.41962
0.00819285,9.49531
0.0082223,9.5705
0.00825401,9.64667
0.0082819,9.72285
0.00830861,9.79999
0.00833424,9.87714
0.00836118,9.95527
0.00838979,10.0339
0.00842293,10.1135
0.00844594,10.1935
0.00847645,10.2741
0.0085084,10.3552
0.00853916,10.4372
0.00856634,10.5192
0.00859256,10.6018
0.00862046,10.6852
0.00864501,10.7683
0.00866921,10.8522
0.00869282,10.9357
0.00872477,11.0197
0.00875338,11.1042
0.00878437,11.1887
0.00881155,11.2736
0.0088379,11.3591
0.00886317,11.4445
0.0088882,11.5305
0.00891526,11.6169
0.00894423,11.7038
0.00897832,11.7907
0.0090055,11.8786
0.00903817,11.9665
0.00907345,12.0544
0.00910612,12.1423
0.00913854,12.2302
0.00916775,12.3181
0.00919624,12.4064
0.00922127,12.4953
0.00924905,12.5842
0.00927945,12.673
0.00930949,12.7619
0.00934183,12.8517
0.00937008,12.9415
0.00939726,13.0319
0.00942015,13.1227
0.00944482,13.2145
0.0094689,13.3063
0.00949513,13.3986
0.00952374,13.4913
0.00955187,13.5836
0.00957953,13.6769
0.00960945,13.7702
0.00963306,13.8634
0.00965904,13.9572
0.00968193,14.0509
0.00970458,14.1452
0.00973009,14.2389
0.00975548,14.3331
0.00978076,14.4269
0.00981127,14.5216
0.00983559,14.6159
0.00985932,14.7111
0.00988185,14.8063
0.00990903,14.902
0.00993561,14.9982
0.00996124,15.0949
0.00999176,15.192
0.010021,15.2897
0.010052,15.3883
0.0100758,15.4869
0.0101011,15.5866
0.0101253,15.6867
0.0101489,15.7872
0.0101724,15.8873
0.0101983,15.9884
0.010227,16.089
0.0102522,16.1901
0.0102798,16.2911
0.0103036,16.3927
0.0103266,16.4948
0.0103518,16.5973
0.0103761,16.6998
0.0104062,16.8029
0.0104357,16.9059
0.0104679,17.0094
0.0104996,17.1124
0.0105282,17.216
0.0105594,17.32
0.0105845,17.4235
0.0106124,17.5275
0.0106431,17.6315
0.0106767,17.735
0.0107106,17.8395
0.0107466,17.944
0.0107783,18.0494
0.0108077,18.1559
0.0108383,18.2633
0.0108682,18.3712
0.010903,18.4791
0.0109399,18.5875
0.010979,18.6964
0.011011,18.8058
0.0110449,18.9161
0.011072,19.0265
0.0111012,19.1373
0.0111304,19.2482
0.0111653,19.359
0.0111962,19.4703
0.0112322,19.5822
0.0112615,19.6945
0.0112919,19.8073
0.0113208,19.921
0.011351,20.0358
0.0113858,20.1505
0.0114232,20.2658
0.0114628,20.3815
0.0115014,20.4977
0.011536,20.6144
0.0115689,20.7321
0.0116008,20.8497
0.0116326,20.9679
0.01167,21.0861
0.0117074,21.2037
0.0117413,21.3224
0.0117739,21.4415
0.0118085,21.5607
0.0118424,21.6808
0.0118817,21.8004
0.0119179,21.9205
0.0119604,22.0407
0.0119992,22.1608
0.0120355,22.2809
0.0120715,22.401
0.0121053,22.5206
0.0121425,22.6403
0.0121766,22.7599
0.0122141,22.8795
0.0122482,22.9992
0.0122813,23.1193
0.0123161,23.2399
0.01235,23.3615
0.0123862,23.4826
0.0124217,23.6046
0.0124625,23.7267
0.0124997,23.8488
0.0125333,23.9718
0.0125633,24.0949
0.0125931,24.2179
0.0126265,24.341
0.0126569,24.4635
0.0126901,24.5866
0.0127199,24.7096
0.0127487,24.8336
0.0127765,24.9577
0.0128065,25.0822
0.012839,25.2067
0.0128769,25.3317
0.0129117,25.4567
0.0129515,25.5817
0.0129849,25.7077
0.0130178,25.8336
0.0130504,25.9596
0.0130864,26.0846
0.0131251,26.2106
0.0131665,26.3366
0.013198,26.4635
0.0132309,26.5905
0.0132655,26.7184
0.0132993,26.8463
0.0133389,26.9752
0.0133804,27.1041
0.0134178,27.233
0.0134545,27.3629
0.0134872,27.4928
0.0135194,27.6237
0.0135542,27.7535
0.0135895,27.8844
0.0136272,28.0153
0.0136577,28.1461
0.0136896,28.278
0.0137204,28.4108
0.0137559,28.5436
0.0137931,28.6774
0.0138293,28.8112
0.0138673,28.9459
0.0139011,29.0817
0.0139354,29.2174
0.0139662,29.3541
0.013993,29.4918
0.0140247,29.6295
0.0140583,29.7672
0.0140901,29.9069
0.0141139,30.0465
0.0141418,30.1871
0.0141742,30.3287
0.0142116,30.4713
0.0142488,30.6129
0.014282,30.7555
0.0143139,30.8991
0.0143456,31.0426
0.0143771,31.1852
0.0144119,31.3287
0.0144491,31.4723
0.0144854,31.6159
0.0145173,31.7604
0.0145545,31.9059
0.0145917,32.0504
0.0146375,32.195
0.0146832,32.3405
0.0147228,32.485
0.0147564,32.6305
0.0147874,32.776
0.0148213,32.9205
0.0148587,33.0651
0.014894,33.2096
0.0149288,33.3541
0.0149598,33.4996
0.0149934,33.6452
0.0150328,33.7897
0.0150726,33.9352
0.0151124,34.0797
0.015146,34.2252
0.0151827,34.3698
0.0152142,34.5153
0.015249,34.6598
0.0152838,34.8043
0.0153215,34.9489
0.0153518,35.0944
0.0153842,35.2399
0.0154183,35.3864
0.0154548,35.5328
0.015496,35.6803
0.0155332,35.8278
0.0155636,35.9762
0.015596,36.1246
0.0156311,36.2731
0.0156661,36.4215
0.0157019,36.57
0.0157374,36.7184
0.015772,36.8678
0.0158063,37.0162
0.0158468,37.1657
0.0158869,37.3151
0.0159296,37.4635
0.0159711,37.6139
0.0160059,37.7643
0.0160457,37.9147
0.0160819,38.0651
0.0161232,38.2164
0.0161601,38.3688
0.0161923,38.5211
0.0162226,38.6754
0.0162514,38.8297
0.0162872,38.985
0.0163256,39.1412
0.0163602,39.2965
0.0163933,39.4537
0.0164226,39.61
0.016457,39.7682
0.0164882,39.9254
0.0165216,40.0836
0.0165508,40.2418
0.0165839,40.401
0.0166185,40.5612
0.0166576,40.7223
0.0167015,40.8834
0.0167441,41.0455
0.0167825,41.2077
0.0168168,41.3707
0.0168528,41.5348
0.0168908,41.6989
0.0169256,41.8629
0.016957,42.028
0.0169942,42.192
0.0170376,42.3561
0.0170846,42.5202
0.0171318,42.6842
0.0171738,42.8483
0.0172129,43.0114
0.0172529,43.1744
0.017293,43.3375
0.0173359,43.5006
0.0173731,43.6637
0.0174107,43.8268
0.0174487,43.9899
0.0174949,44.153
0.0175409,44.3161
0.0175807,44.4791
0.0176144,44.6422
0.0176485,44.8053
0.0176864,44.9684
0.0177257,45.1305
0.0177655,45.2926
0.017802,45.4547
0.0178378,45.6168
0.0178764,45.7789
0.0179205,45.942
0.0179675,46.1041
0.0180137,46.2672
0.0180538,46.4303
0.0180933,46.5934
0.0181379,46.7575
0.0181825,46.9215
0.0182235,47.0856
0.0182612,47.2496
0.0183048,47.4137
0.0183511,47.5778
0.0184033,47.7428
0.0184503,47.9069
0.0184967,48.0709
0.0185432,48.235
0.0185897,48.3991
0.0186353,48.5641
0.0186808,48.7282
0.0187251,48.8942
0.0187659,49.0592
0.0188146,49.2252
0.018868,49.3922
0.0189202,49.5592
0.0189655,49.7262
0.0190065,49.8952
0.019052,50.0641
0.0190999,50.233
0.0191436,50.403
0.0191827,50.5729
0.0192294,50.7448
0.0192752,50.9157
0.0193252,51.0885
0.0193801,51.2614
0.0194254,51.4342
0.0194728,51.608
0.0195188,51.7828
0.0195718,51.9577
0.0196156,52.1325
0.0196683,52.3082
0.0197182,52.483
0.0197763,52.6588
0.0198321,52.8336
0.0198855,53.0094
0.0199361,53.1842
0.0199845,53.358
0.020031,53.5328
0.0200806,53.7067
0.0201254,53.8795
0.020174,54.0524
0.0202236,54.2252
0.0202794,54.3981
0.0203381,54.57
0.0203879,54.7428
0.0204351,54.9147
0.0204818,55.0875
0.0205288,55.2594
0.0205789,55.4323
0.0206199,55.6051
0.020663,55.778
0.020714,55.9508
0.0207646,56.1246
0.0208149,56.2975
0.0208652,56.4713
0.0209126,56.6452
0.0209601,56.819
0.021013,56.9928
0.0210624,57.1666
0.0211089,57.3405
0.021158,57.5153
0.0212095,57.6891
0.0212662,57.8639
0.0213232,58.0387
0.021374,58.2135
0.0214264,58.3883
0.0214779,58.5651
0.0215285,58.7409
0.0215723,58.9176
0.0216193,59.0944
0.0216691,59.2711
0.0217247,59.4479
0.0217819,59.6246
0.0218348,59.8034
0.0218842,59.9811
0.0219316,60.1608
0.0219803,60.3405
0.0220303,60.5211
0.0220768,60.7018
0.0221276,60.8844
0.0221825,61.067
0.0222418,61.2496
0.0222945,61.4332
0.0223494,61.6178
0.0224008,61.8024
0.0224547,61.9869
0.0225084,62.1715
0.0225596,62.3561
0.0226176,62.5397
0.0226791,62.7233
0.0227473,62.9069
0.0228131,63.0895
0.0228715,63.2721
0.0229278,63.4537
0.0229897,63.6354
0.0230467,63.817
0.0230987,63.9987
0.0231545,64.1793
0.0232136,64.36
0.0232761,64.5407
0.023339,64.7203
0.0233946,64.9
0.0234482,65.0787
0.0235052,65.2575
0.0235624,65.4362
0.0236154,65.6149
0.0236726,65.7916
0.0237765,65.9469
0.0286288,63.8219
0.0342441,61.3063
0.0398898,58.7907
0.0455356,56.275
0.0512118,53.7438
0.0569186,51.1969
0.0626254,48.6188
0.0682406,46.025
0.0737033,43.4157
0.0790133,40.8219
0.0795093,40.4684
0.0792155,40.488
0.0789523,40.4887
0.0787101,40.4761
0.0784745,40.4591
0.078237,40.4422
0.0779986,40.4268
0.077765,40.4131
0.0775342,40.401
0.0773034,40.3907
0.0770688,40.3818
0.0768342,40.3742
0.0765958,40.3674
0.0763583,40.3614
0.0761294,40.3552
0.0759025,40.3484
0.0756841,40.3414
0.0754752,40.3342
0.0752664,40.3273
0.0750556,40.3208
0.0748458,40.3153
0.0746341,40.3109
0.0744271,40.3071
0.0742259,40.3032
0.0740361,40.2982
0.0738492,40.2916
0.0736756,40.2825
0.0735116,40.2708
0.0733533,40.2559
0.0732055,40.2374
0.0730691,40.215
0.0729403,40.1888
0.0728207,40.1591
0.0727076,40.1269
0.0726037,40.0927
0.072505,40.0576
0.0724077,40.0219
0.0723128,39.9863
0.0722222,39.9514
0.0721326,39.9177
0.0720406,39.885
0.0719457,39.8535
0.0718541,39.8233
0.0717568,39.7945
0.0716629,39.7667
0.0715709,39.7396
0.0714803,39.7132
0.0713954,39.6868
0.0713077,39.6604
0.0712299,39.6333
0.0711527,39.6062
0.0710754,39.5787
0.0710049,39.5511
0.0709352,39.523
0.0708666,39.4943
0.0708027,39.4649
0.0707378,39.4344
0.0706789,39.4027
0.0706258,39.3692
0.0705757,39.3345
0.0705295,39.2979
0.0704925,39.2596
0.0704589,39.2196
0.070431,39.1783
0.0704085,39.1358
0.0703882,39.0924
0.0703721,39.0482
0.0703568,39.0037
0.070345,38.9588
0.0703332,38.9139
0.0703208,38.8695
0.0703134,38.8253
0.070303,38.7811
0.0702949,38.7374
0.0702864,38.6937
0.0702773,38.6505
0.07027,38.6075
0.0702672,38.5655
0.070257,38.524
0.0702512,38.4835
0.0702471,38.4432
0.0702423,38.4034
0.070242,38.3643
0.0702348,38.3258
0.070232,38.2877
0.07023,38.2508
0.0702239,38.2144
0.0702193,38.1788
0.0702165,38.1436
0.0702101,38.1087
0.0702086,38.0743
0.0702034,38.0404
0.0701996,38.0072
0.0701949,37.9744
0.0701921,37.942
0.0701858,37.91
0.0701846,37.8783
0.0701799,37.8468
0.0701777,37.8155
0.0701745,37.7849
0.0701704,37.7546
0.0701704,37.7251
0.0701662,37.6962
0.0701635,37.668
0.0701594,37.6406
0.0701569,37.6136
0.0701564,37.5872
0.0701546,37.5615
0.0701545,37.5362
0.0701527,37.5118
0.070152,37.4882
0.0701495,37.4657
0.0701485,37.4437
0.0701434,37.4223
0.0701433,37.4013
0.0701422,37.3807
0.0701399,37.3608
0.070139,37.3416
0.0701365,37.3231
0.0701357,37.3053
0.0701391,37.2882
0.0701386,37.2716
0.070137,37.2556
0.0701373,37.2399
0.0701364,37.2249
0.070137,37.2106
0.0701364,37.1969
0.0701347,37.1836
0.0701317,37.171
0.0701309,37.1588
0.0701325,37.1467
0.0701306,37.1351
0.070131,37.1237
0.0701331,37.1128
0.0701339,37.1026
0.0701336,37.0929
0.0701323,37.0838
0.070133,37.075
0.0701333,37.0664
0.0701358,37.0582
0.0701374,37.0504
0.070141,37.043
0.0701405,37.0362
0.0701417,37.03
0.0701447,37.0243
0.070147,37.0191
0.0701487,37.014
0.0701528,37.0092
0.0701591,37.0048
0.0701617,37.0007
0.0701666,36.9969
0.0701675,36.9937
0.0701732,36.9909
0.0701786,36.9883
0.0701805,36.986
0.0701851,36.9838
0.0701893,36.9818
0.0701931,36.9799
0.0701964,36.9783
0.070199,36.9771
0.0702011,36.9761
0.0702058,36.9752
0.0702103,36.9744
0.0702175,36.9737
0.0702216,36.9732
0.0702284,36.9727
0.0702345,36.9726
0.070243,36.9727
0.0702506,36.9732
0.070261,36.9738
0.070271,36.9746
0.0702839,36.9754
0.0702941,36.9761
0.0703067,36.977
0.0703224,36.9778
0.0703345,36.979
0.0703522,36.9803
0.0703668,36.9817
0.0703843,36.983
0.0704047,36.9844
0.0704252,36.9858
0.0704458,36.987
0.0704662,36.9884
0.0704891,36.99
0.0705115,36.9918
0.0705365,36.9937
0.0705616,36.9957
0.0705835,36.9977
0.0706115,36.9996
0.0706365,37.0016
0.0706646,37.0035
0.070692,37.0057
0.0707219,37.0081
0.0707517,37.0105
0.0707815,37.013
0.0708117,37.0153
0.070845,37.0174
0.0708787,37.0193
0.0709127,37.0211
0.0709497,37.023
0.0709864,37.0249
0.0710234,37.0267
0.0710632,37.0284
0.0711037,37.03
0.0711443,37.0315
0.071185,37.0328
0.0712291,37.034
0.0712732,37.0351
0.0713171,37.0364
0.071361,37.0377
0.0714077,37.039
0.0714521,37.04
0.0715,37.0408
0.0715481,37.0413
0.0715965,37.0418
0.0716454,37.042
0.0716971,37.0424
0.0717486,37.0427
0.0718001,37.0431
0.0718519,37.0434
0.0719041,37.0434
0.0719594,37.0434
0.072015,37.0433
0.0720705,37.0431
0.0721289,37.0429
0.072184,37.043
0.072236,37.0432
0.0722939,37.0433
0.0723487,37.0435
0.0724038,37.0435
0.0724589,37.0437
0.0725168,37.0438
0.0725743,37.0441
0.072631,37.0447
0.0726875,37.0455
0.0727414,37.0462
0.0727977,37.0471
0.0728537,37.048
0.0729097,37.0491
0.0729686,37.0501
0.0730268,37.0514
0.0730814,37.0531
0.0731384,37.0551
0.0731923,37.0572
0.0732488,37.0594
0.073305,37.0617
0.0733615,37.0639
0.0734178,37.0661
0.0734741,37.0685
0.073533,37.0709
0.0735919,37.0734
0.0736512,37.0756
0.0737082,37.0776
0.0737716,37.0792
0.0738327,37.0805
0.073897,37.0817
0.0739614,37.0829
0.0740258,37.084
0.074093,37.0853
0.074154,37.0867
0.0742179,37.0882
0.0742814,37.0898
0.0743443,37.0916
0.0744072,37.0936
0.0744692,37.0958
0.0745312,37.0984
0.0745946,37.1013
0.074655,37.1045
0.0747174,37.1079
0.0747799,37.1115
0.0748419,37.1153
0.0749034,37.1193
0.0749644,37.1235
0.0750248,37.1281
0.0750872,37.1329
0.0751492,37.1382
0.0752107,37.1436
0.0752689,37.1492
0.0753297,37.1548
0.0753936,37.1605
0.0754565,37.1665
0.0755185,37.173
0.0755796,37.1801
0.0756363,37.1879
0.0756942,37.1964
0.0757505,37.2056
0.0758056,37.2155
0.0758592,37.2261
0.0759143,37.2375
0.0759613,37.2499
0.0760123,37.2631
0.0760585,37.2773
0.0761029,37.2924
0.0761491,37.308
0.0761909,37.3242
0.076235,37.3408
0.076275,37.3579
0.0763198,37.3756
0.0763604,37.3939
0.0763997,37.4128
0.0764412,37.4321
0.0764822,37.4517
0.076523,37.4713
0.0765637,37.4908
0.0766048,37.5104
0.0766489,37.5298
0.0766932,37.5491
0.0767376,37.5684
0.0767819,37.5877
0.0768298,37.6066
0.0768756,37.6252
0.0769221,37.6434
0.0769695,37.6613
0.0770196,37.6792
0.0770699,37.697
0.0771169,37.7151
0.0771631,37.7334
0.0772149,37.752
0.0772637,37.7704
0.0773124,37.7891
0.0773603,37.808
0.0774104,37.8273
0.0774595,37.8472
0.0775074,37.8674
0.0775541,37.8884
0.0776028,37.9098
0.0776507,37.9316
0.077695,37.9537
0.0777411,37.9763
0.077789,37.9995
0.0778331,38.0232
0.0778784,38.0476
0.0779223,38.0728
0.0779645,38.0988
0.0780047,38.1256
0.0780431,38.1534
0.0780787,38.1825
0.0781116,38.213
0.0781414,38.245
0.0781677,38.2784
0.0781935,38.3138
0.078216,38.3507
0.0782383,38.389
0.0782548,38.4286
0.0782719,38.4696
0.0782869,38.5116
0.0782995,38.5546
0.0783128,38.5985
0.0783238,38.6439
0.0783358,38.6901
0.0783461,38.7369
0.0783581,38.7845
0.0783662,38.8324
0.0783765,38.8807
0.0783857,38.9298
0.0783938,38.9791
0.0784009,39.0292
0.0784068,39.0795
0.0784119,39.1305
0.0784222,39.1815
0.0784318,39.233
0.0784401,39.2853
0.0784467,39.3383
0.0784571,39.3922
0.0784629,39.4469
0.0784726,39.5026
0.0784808,39.559
0.0784909,39.6158
0.0784971,39.6732
0.0785053,39.7311
0.0785125,39.7894
0.0785187,39.848
0.0785271,39.9071
0.0785318,39.9667
0.0785385,40.0265
0.0785443,40.087
0.0785524,40.1476
0.0785567,40.2086
0.0785659,40.2701
0.0785739,40.3324
0.0785807,40.3949
0.0785865,40.4579
0.0785942,40.5219
0.0786008,40.5858
0.0786093,40.6508
0.0786173,40.7157
0.0786213,40.7811
0.0786269,40.847
0.0786308,40.9139
0.0786362,40.9813
0.0786401,41.0497
0.0786453,41.119
0.0786518,41.1888
0.0786571,41.2592
0.078661,41.3304
0.0786668,41.4017
0.0786739,41.474
0.0786803,41.5468
0.0786885,41.62
0.0786901,41.6937
0.0786968,41.7679
0.0787,41.8422
0.078703,41.9164
0.0787082,41.9911
0.0787154,42.0663
0.0787217,42.1415
0.0787273,42.2177
0.078735,42.2938
0.0787451,42.3705
0.0787519,42.4471
0.0787613,42.5238
0.0787671,42.6014
0.0787717,42.6791
0.0787778,42.7577
0.0787822,42.8368
0.0787879,42.9169
0.078798,42.9974
0.0788033,43.0795
0.078813,43.1615
0.0788183,43.2445
0.0788277,43.3285
0.0788354,43.413
0.0788389,43.4984
0.0788412,43.5844
0.0788427,43.6708
0.0788462,43.7577
0.078849,43.8446
0.0788512,43.932
0.0788551,44.0199
0.0788605,44.1083
0.0788649,44.1976
0.0788707,44.2875
0.0788755,44.3778
0.0788792,44.4686
0.0788792,44.5599
0.0788809,44.6517
0.0788867,44.7445
0.0788907,44.8378
0.0788959,44.932
0.0788996,45.0272
0.0789103,45.1229
0.0789175,45.2196
0.0789265,45.3163
0.0789319,45.413
0.0789393,45.5106
0.0789422,45.6088
0.0789469,45.7074
0.0789508,45.807
0.0789569,45.9061
0.078965,46.0062
0.0789724,46.1068
0.0789817,46.2074
0.078987,46.3085
0.0789909,46.4105
0.0789961,46.5136
0.0790002,46.6166
0.0790062,46.7206
0.0790141,46.8246
0.0790246,46.9291
0.0790348,47.0336
0.0790479,47.1381
0.079058,47.243
0.0790674,47.348
0.0790765,47.453
0.0790823,47.558
0.0790883,47.6635
0.0790975,47.7684
0.0791103,47.8729
0.0791232,47.9779
0.0791387,48.0824
0.0791501,48.1879
0.0791634,48.2938
0.0791727,48.4003
0.079184,48.5072
0.0791951,48.6141
0.0792086,48.7211
0.0792247,48.8285
0.0792432,48.9359
0.0792578,49.0443
0.0792717,49.1527
0.0792822,49.2611
0.0792928,49.3695
0.0793066,49.4779
0.0793189,49.5858
0.0793353,49.6932
0.0793556,49.7997
0.0793769,49.9061
0.0793957,50.0121
0.0794153,50.1176
0.0794352,50.223
0.0794617,50.328
0.0794896,50.4325
0.0795252,50.536
0.0795619,50.639
0.0795993,50.7416
0.0796346,50.8441
0.0796735,50.9462
0.0797133,51.0472
0.0797545,51.1483
0.0797984,51.2479
0.0798485,51.3456
0.0799023,51.4418
0.0799634,51.536
0.0800237,51.6273
0.0800933,51.7157
0.0801715,51.8002
0.0802655,51.8783
0.0804056,51.9345
0.080667,51.9328
0.0809759,51.9099
0.0812945,51.8797
0.0816225,51.8458
0.0819506,51.8097
0.0822825,51.7718
0.0826144,51.7337
0.0829367,51.6961
0.0832457,51.6615
0.0835127,51.646
0.0836567,51.6851
0.0837597,51.7434
0.083847,51.8079
0.0839266,51.8762
0.084001,51.947
0.084073,52.0203
0.0841464,52.0955
0.0842132,52.1726
0.0842766,52.2517
0.0843396,52.3318
0.0843963,52.4143
0.0844497,52.4978
0.0844976,52.5828
0.0845439,52.6687
0.0845925,52.7547
0.0846431,52.8411
0.0846934,52.9275
0.0847422,53.0149
0.0847897,53.1028
0.0848355,53.1917
0.0848798,53.281
0.0849222,53.3714
0.0849666,53.4627
0.0850176,53.5515
0.0850744,53.6394
0.0851344,53.7268
0.0851943,53.8142
0.0852501,53.9026
0.0853047,53.991
0.0853581,54.0803
0.085411,54.1702
0.0854637,54.2595
0.085519,54.3494
0.0855686,54.4422
0.0856127,54.5374
0.0856559,54.6341
0.08569,54.7327
0.0857248,54.8323
0.0857608,54.9329
0.085798,55.0345
0.0858373,55.136
0.0858754,55.2386
0.0859122,55.3416
0.0859479,55.4451
0.0859801,55.5486
0.0860097,55.6521
0.0860389,55.7561
0.0860711,55.8596
0.0861037,55.9632
0.0861366,56.0667
0.0861691,56.1707
0.0862005,56.2747
0.086231,56.3792
0.0862603,56.4842
0.0862881,56.5901
0.0863182,56.6966
0.0863485,56.8025
0.0863818,56.9085
0.0864183,57.0144
0.0864515,57.1204
0.0864816,57.2268
0.0865117,57.3328
0.0865419,57.4387
0.0865732,57.5447
0.0866085,57.6497
0.0866437,57.7547
0.0866786,57.8601
0.0867119,57.9661
0.0867409,58.0725
0.0867717,58.18
0.0868012,58.2879
0.0868387,58.3963
0.086873,58.5042
0.0869097,58.6131
0.0869457,58.722
0.086981,58.8313
0.0870127,58.9407
0.0870439,59.0506
0.0870759,59.1604
0.0871143,59.2693
0.087151,59.3782
0.087192,59.4856
0.0872313,59.593
0.0872742,59.7
0.0873145,59.8069
0.0873589,59.9134
0.087408,60.0188
0.0874624,60.1228
0.0875227,60.2259
0.087583,60.3274
0.0876498,60.4256
0.0877265,60.5188
0.0878157,60.6053
0.087922,60.6844
0.0880431,60.7576
0.0881738,60.8264
0.0883102,60.8909
0.0884523,60.9529
0.0885963,61.0127
0.0887412,61.072
0.0888833,61.1324
0.0890178,61.1968
0.0891427,61.2671
0.0892583,61.3432
0.089358,61.4238
0.0894467,61.5088
0.0895287,61.5967
0.0896021,61.688
0.0896708,61.7812
0.0897361,61.8755
0.0898057,61.9712
0.089873,62.0679
0.0899354,62.1655
0.0899962,62.2641
0.0900582,62.3628
0.0901193,62.4624
0.0901827,62.5625
0.0902509,62.6631
0.0903176,62.7641
0.0903834,62.8657
0.0904459,62.9673
0.0905079,63.0693
0.0905694,63.1714
0.0906314,63.2734
0.0906962,63.3755
0.0907573,63.478
0.0908212,63.5805
0.0908841,63.6836
0.0909435,63.7871
0.091005,63.8906
0.091067,63.9936
0.0911356,64.0971
0.0912076,64.1997
0.0912772,64.3022
0.0913464,64.4048
0.0914072,64.5078
0.0914711,64.6103
0.0915304,64.7119
0.0915963,64.8135
0.091663,64.9145
0.0917288,65.0161
0.0917908,65.1181
0.0918514,65.2212
0.09191,65.3247
0.091971,65.4287
0.0920321,65.5322
0.0920929,65.6362
0.0921563,65.7402
0.0922173,65.8442
0.0922755,65.9482
0.0923306,66.0522
0.0923885,66.1562
0.0924441,66.2597
0.0925011,66.3628
0.0925618,66.4653
0.0926229,66.5678
0.0926813,66.6699
0.092739,66.7729
0.0927965,66.8755
0.0928568,66.9785
0.0929245,67.0801
0.0929946,67.1811
0.0930666,67.2812
0.0931395,67.3808
0.0932115,67.4795
0.093285,67.5771
0.0933603,67.6743
0.0934395,67.7705
0.0935196,67.8667
0.0936002,67.9629
0.0936769,68.0586
0.0937532,68.1553
0.0938271,68.2529
0.0939025,68.3515
0.0939759,68.4507
0.0940508,68.5508
0.0941242,68.6513
0.0941962,68.7529
0.0942601,68.855
0.0943235,68.958
0.0943889,69.061
0.0944537,69.1645
0.0945176,69.2685
0.0945839,69.3725
0.0946423,69.478
0.0947009,69.5844
0.0947555,69.6914
0.0948123,69.7983
0.0948716,69.9062
0.094936,70.0136
0.0949966,70.122
0.095059,70.2309
0.0951155,70.3398
0.0951711,70.4492
0.0952302,70.5581
0.0952901,70.667
0.0953502,70.7754
0.0954155,70.8843
0.0954722,70.9931
0.0955302,71.1025
0.0955895,71.2129
0.095651,71.3237
0.0957145,71.4345
0.0957812,71.5454
0.0958484,71.6562
0.0959152,71.7671
0.0959781,71.8784
0.0960416,71.9897
0.0961045,72.1011
0.0961713,72.2119
0.0962423,72.3222
0.0963105,72.4321
0.0963792,72.5425
0.0964445,72.6528
0.0965165,72.7627
0.0965923,72.872
0.09667,72.9804
0.0967525,73.0879
0.0968345,73.1943
0.0969156,73.2998
0.0969938,73.4038
0.097073,73.5058
0.0971588,73.6059
0.0972523,73.7041
0.09735,73.7998
0.0974482,73.8945
0.0975474,73.9868
0.0976538,74.0771
0.0977629,74.165
0.0978803,74.2485
0.0980138,74.3271
0.0982865,74.3374
0.0987443,74.2574
0.0992593,74.146
0.099862,73.9956
0.100533,73.8072
0.101262,73.5923
0.102033,73.357
0.104215,72.4351
0.107953,70.7554
0.111676,69.0835
0.115247,67.4663
0.118634,65.9351
0.121976,64.4273
0.125241,62.9507
0.1284,61.4898
0.131421,60.0523
0.134351,58.6226
0.1358,57.8687
0.135654,57.8622
0.135528,57.8444
0.135435,57.8092
0.135437,57.7257
0.135839,57.4484
0.136272,57.1554
0.136711,56.8605
0.137161,56.5636
0.137608,56.2648
0.138061,55.966
0.1385,55.6691
0.138924,55.3722
0.139307,55.087
0.139587,54.8439
0.139461,54.7938
0.139314,54.756
0.139163,54.7208
0.139012,54.6881
0.138863,54.6564
0.138708,54.6257
0.138561,54.596
0.138409,54.567
0.138255,54.5387
0.138103,54.511
0.137953,54.484
0.137806,54.4569
0.137664,54.4285
0.13753,54.3974
0.13741,54.3615
0.137303,54.3192
0.137216,54.2687
0.137154,54.2089
0.137113,54.14
0.137093,54.0629
0.13709,53.9784
0.137103,53.8881
0.137124,53.7933
0.137157,53.6962
0.137191,53.5985
0.13722,53.5014
0.137244,53.4071
0.13726,53.3168
0.137264,53.2304
0.137264,53.1474
0.13726,53.0678
0.137245,52.9916
0.137232,52.9174
0.137212,52.8461
0.137187,52.7763
0.137162,52.7084
0.137136,52.6425
0.137106,52.578
0.137074,52.515
0.137043,52.4528
0.137012,52.3908
0.136984,52.3283
0.136957,52.2653
0.136935,52.2018
0.136921,52.1373
0.13691,52.0719
0.136902,52.006
0.136894,51.9396
0.136892,51.8717
0.136895,51.8029
0.136899,51.7335
0.136904,51.6637
0.136909,51.5944
0.136912,51.525
0.136915,51.4562
0.136917,51.3878
0.136921,51.3204
0.136926,51.2531
0.13693,51.1867
0.136931,51.1217
0.136933,51.0573
0.136933,50.9943
0.136935,50.9313
0.136935,50.8695
0.136937,50.8085
0.136937,50.7479
0.136936,50.6881
0.136937,50.6288
0.136936,50.5704
0.136936,50.5126
0.136936,50.4555
0.136936,50.3988
0.136935,50.3434
0.136932,50.2885
0.136934,50.2345
0.136933,50.1813
0.136931,50.129
0.13693,50.0778
0.136929,50.0275
0.136925,49.9777
0.136924,49.9288
0.136923,49.8805
0.13692,49.8327
0.136914,49.7853
0.136912,49.7384
0.13691,49.6918
0.136907,49.6454
0.136901,49.5993
0.136897,49.5534
0.136894,49.5082
0.136892,49.4633
0.136888,49.4188
0.136886,49.3746
0.136883,49.3312
0.136881,49.2885
0.136881,49.2462
0.136877,49.2047
0.136875,49.1637
0.136874,49.1234
0.13687,49.0834
0.13687,49.0443
0.136868,49.0055
0.136866,48.9674
0.136862,48.9301
0.13686,48.893
0.136858,48.8561
0.136858,48.82
0.136853,48.7841
0.136851,48.7489
0.136847,48.714
0.136845,48.6801
0.136842,48.6464
0.136841,48.6134
0.136838,48.5809
0.136834,48.5492
0.136834,48.5181
0.13683,48.4878
0.136831,48.458
0.136827,48.4291
0.136827,48.4009
0.136823,48.3733
0.136824,48.3463
0.13682,48.3198
0.136821,48.2941
0.136818,48.2689
0.136817,48.2444
0.136814,48.2205
0.136813,48.197
0.136814,48.1742
0.136811,48.1517
0.13681,48.1299
0.13681,48.1085
0.13681,48.0877
0.136808,48.0674
0.136806,48.0476
0.136807,48.0286
0.136805,48.01
0.136805,47.992
0.136803,47.9745
0.136804,47.9574
0.136803,47.9411
0.136803,47.9252
0.136803,47.9098
0.136802,47.8952
0.136802,47.8809
0.136804,47.8672
0.136803,47.8538
0.1368,47.841
0.136803,47.8286
0.136801,47.8167
0.136802,47.8053
0.136801,47.7944
0.136802,47.7839
0.136803,47.7738
0.136802,47.7644
0.136804,47.7552
0.136804,47.7465
0.136807,47.7384
0.136808,47.7306
0.136809,47.7233
0.136811,47.7165
0.136813,47.7101
0.136817,47.704
0.136817,47.6984
0.136822,47.6931
0.136823,47.6882
0.136827,47.6837
0.136827,47.6795
0.136832,47.6757
0.136836,47.6722
0.13684,47.669
0.136846,47.666
0.136849,47.6633
0.136854,47.6609
0.136858,47.6587
0.136862,47.6568
0.136865,47.6553
0.136868,47.6539
0.136871,47.6526
0.136873,47.6514
0.136875,47.6504
0.13688,47.6495
0.136884,47.6489
0.136891,47.6484
0.1369,47.6482
0.136906,47.6481
0.136912,47.6481
0.136923,47.6483
0.136934,47.6487
0.136945,47.6492
0.136958,47.6498
0.136971,47.6507
0.136986,47.6517
0.137001,47.6528
0.137016,47.6539
0.137031,47.655
0.137046,47.6563
0.137064,47.6575
0.137082,47.6587
0.137103,47.6599
0.137123,47.6613
0.137144,47.6626
0.137167,47.664
0.13719,47.6655
0.137216,47.6669
0.137239,47.6684
0.137268,47.6699
0.137293,47.6716
0.137322,47.6735
0.137349,47.6755
0.137377,47.6775
0.137405,47.6795
0.137436,47.6814
0.137467,47.6831
0.137502,47.6848
0.137536,47.6865
0.137567,47.6881
0.137602,47.6897
0.137637,47.691
0.137675,47.6923
0.137713,47.6935
0.137752,47.6945
0.13779,47.6956
0.137831,47.6968
0.137872,47.698
0.137911,47.6991
0.137952,47.7004
0.137996,47.7016
0.138037,47.7027
0.138081,47.7038
0.138126,47.7049
0.13817,47.7059
0.138215,47.7067
0.138263,47.7075
0.138311,47.7081
0.138359,47.7087
0.138411,47.709
0.13846,47.7091
0.138512,47.7092
0.138564,47.7092
0.138617,47.709
0.138672,47.709
0.138725,47.7089
0.13878,47.7089
0.138832,47.7088
0.138888,47.7086
0.138946,47.7085
0.139002,47.7084
0.13906,47.7085
0.139115,47.7085
0.139173,47.7086
0.139228,47.7087
0.139286,47.7089
0.139343,47.7091
0.139401,47.7093
0.139459,47.7095
0.139516,47.7097
0.139574,47.7102
0.13963,47.7108
0.139687,47.7116
0.139746,47.7125
0.139804,47.7137
0.13986,47.7152
0.139914,47.7168
0.139969,47.7187
0.140025,47.7209
0.140081,47.7234
0.140137,47.7258
0.140193,47.7281
0.140252,47.7305
0.140312,47.7328
0.140369,47.7347
0.140429,47.7364
0.14049,47.738
0.140551,47.7394
0.140612,47.7408
0.140676,47.7422
0.14074,47.7436
0.140803,47.745
0.140867,47.7465
0.14093,47.7483
0.14099,47.7503
0.141055,47.7528
0.141116,47.7556
0.141176,47.7589
0.141235,47.7624
0.141297,47.7662
0.141356,47.7702
0.141414,47.7745
0.141474,47.7791
0.141537,47.7839
0.141593,47.789
0.141649,47.7942
0.141708,47.7995
0.141766,47.805
0.141824,47.8107
0.141882,47.8167
0.141941,47.8232
0.141996,47.8304
0.142052,47.8381
0.142104,47.8466
0.142158,47.856
0.142212,47.8662
0.142262,47.8772
0.14231,47.8891
0.142359,47.902
0.142406,47.916
0.142453,47.9308
0.142496,47.9464
0.142541,47.9628
0.142581,47.9799
0.142624,47.9973
0.142668,48.0153
0.142708,48.0338
0.14275,48.0529
0.142788,48.0722
0.142826,48.0918
0.142866,48.1116
0.142907,48.1315
0.142947,48.1516
0.142989,48.1719
0.143028,48.1924
0.143069,48.2129
0.143111,48.2334
0.143156,48.2537
0.143202,48.2738
0.143251,48.2938
0.143297,48.3136
0.143344,48.3331
0.143391,48.3525
0.143441,48.3717
0.143488,48.3909
0.143539,48.4099
0.143589,48.4292
0.143639,48.4485
0.143692,48.4681
0.143741,48.488
0.143789,48.5082
0.14384,48.5287
0.14389,48.5496
0.143936,48.5708
0.143984,48.5924
0.144032,48.6143
0.144078,48.6366
0.144124,48.6596
0.144169,48.6828
0.144212,48.7066
0.144258,48.7308
0.144302,48.7559
0.144348,48.7816
0.144392,48.8081
0.144434,48.8355
0.144474,48.864
0.144513,48.8939
0.14455,48.9252
0.144584,48.9581
0.144614,48.9928
0.144643,49.0289
0.144664,49.0668
0.144687,49.1063
0.144704,49.1474
0.144721,49.1896
0.144738,49.2333
0.144753,49.278
0.144765,49.3241
0.144781,49.371
0.144792,49.4188
0.144802,49.4674
0.144813,49.517
0.144828,49.567
0.144839,49.6181
0.144851,49.6698
0.144863,49.7218
0.144873,49.7743
0.144883,49.827
0.144896,49.88
0.144902,49.933
0.14491,49.9865
0.144921,50.0402
0.144929,50.0939
0.144942,50.1481
0.144949,50.2023
0.144958,50.257
0.144968,50.3121
0.144981,50.3678
0.14499,50.4237
0.145004,50.4801
0.145015,50.5368
0.145028,50.5939
0.145039,50.6513
0.145054,50.7089
0.145065,50.7667
0.145079,50.8246
0.145092,50.8827
0.145105,50.9411
0.145118,50.9994
0.145132,51.0582
0.145147,51.1173
0.14516,51.1769
0.145176,51.2367
0.145194,51.2968
0.145211,51.3571
0.145231,51.4176
0.145248,51.4784
0.145265,51.5392
0.145287,51.6
0.145306,51.6608
0.145322,51.7216
0.145345,51.7824
0.145365,51.8429
0.145385,51.9035
0.145405,51.9638
0.145428,52.0243
0.145451,52.0849
0.145474,52.1456
0.145502,52.2062
0.145527,52.267
0.145556,52.3278
0.145581,52.3883
0.145609,52.4491
0.145638,52.5097
0.145666,52.5704
0.145692,52.6312
0.14572,52.692
0.145751,52.7528
0.145781,52.8141
0.145814,52.8754
0.145849,52.9369
0.145884,52.9989
0.145917,53.0612
0.145954,53.1237
0.145986,53.1862
0.146019,53.2492
0.146051,53.3121
0.146085,53.3756
0.14612,53.4391
0.14615,53.5031
0.146183,53.5675
0.146217,53.632
0.146251,53.6969
0.146288,53.7623
0.146324,53.8278
0.14636,53.8932
0.146392,53.9586
0.146427,54.0245
0.14646,54.0905
0.146498,54.1564
0.146533,54.2223
0.146571,54.2877
0.146609,54.3541
0.146649,54.4201
0.146689,54.4865
0.146732,54.5529
0.146774,54.6193
0.146819,54.6862
0.146858,54.7531
0.146899,54.8204
0.14694,54.8873
0.14698,54.9547
0.147021,55.0221
0.147065,55.0895
0.147105,55.1574
0.147147,55.2252
0.147189,55.2936
0.14723,55.3619
0.147275,55.4303
0.147316,55.4987
0.147357,55.5675
0.147394,55.6369
0.147432,55.7067
0.147473,55.777
0.147513,55.8473
0.147554,55.9186
0.147597,55.9909
0.147642,56.0631
0.147683,56.1359
0.147726,56.2086
0.147766,56.2824
0.147806,56.3556
0.147845,56.4293
0.147883,56.5036
0.147921,56.5778
0.147961,56.6525
0.148004,56.7272
0.148044,56.8024
0.148089,56.8776
0.14813,56.9528
0.14817,57.0289
0.148207,57.1056
0.148245,57.1823
0.148285,57.2594
0.148328,57.337
0.148371,57.4152
0.148415,57.4933
0.148462,57.5714
0.148509,57.6495
0.148557,57.7282
0.148604,57.8058
0.148653,57.8839
0.148699,57.9611
0.148747,58.0377
0.148796,58.1134
0.14885,58.1886
0.148907,58.2633
0.148966,58.3375
0.149025,58.4113
0.149082,58.485
0.149141,58.5587
0.149197,58.6329
0.149256,58.7072
0.149317,58.7814
0.149379,58.8566
0.149441,58.9323
0.149504,59.0084
0.149563,59.0851
0.149621,59.1622
0.149676,59.2394
0.149732,59.3165
0.149788,59.3932
0.149845,59.4699
0.149899,59.546
0.149954,59.6217
0.150016,59.6974
0.150076,59.7721
0.150137,59.8463
0.1502,59.9201
0.15026,59.9933
0.150321,60.0665
0.150384,60.1398
0.150449,60.2125
0.150513,60.2853
0.150585,60.3576
0.150653,60.4293
0.150723,60.5011
0.150791,60.5724
0.150856,60.6432
0.150924,60.714
0.15099,60.7843
0.151058,60.8546
0.151129,60.924
0.1512,60.9933
0.151272,61.0626
0.151342,61.1325
0.151412,61.2028
0.151475,61.2736
0.151539,61.3449
0.151605,61.4171
0.151668,61.4904
0.151731,61.5641
0.151794,61.6388
0.151859,61.714
0.151923,61.7897
0.151986,61.8659
0.152046,61.9425
0.152105,62.0192
0.152161,62.0958
0.15222,62.1725
0.152282,62.2492
0.152342,62.3258
0.152404,62.4025
0.152469,62.4791
0.152529,62.5568
0.152586,62.6344
0.152641,62.713
0.152696,62.7921
0.152752,62.8717
0.152811,62.9513
0.152869,63.0314
0.152929,63.1119
0.152992,63.192
0.15305,63.2726
0.153113,63.3527
0.153168,63.4332
0.153226,63.5128
0.153283,63.5924
0.153345,63.6715
0.153409,63.7501
0.153473,63.8287
0.153537,63.9078
0.1536,63.9865
0.153661,64.0651
0.153724,64.1442
0.153787,64.2228
0.153851,64.3019
0.153921,64.38
0.153994,64.4572
0.154068,64.5333
0.154149,64.608
0.154228,64.6813
0.154311,64.7516
0.154401,64.8195
0.154495,64.8834
0.1546,64.9437
0.154715,64.9987
0.154841,65.049
0.154982,65.0944
0.155126,65.1359
0.155277,65.1737
0.155433,65.2084
0.155595,65.2409
0.155763,65.272
0.155933,65.3019
0.156104,65.3319
0.156275,65.3632
0.156435,65.3964
0.156588,65.432
0.156736,65.4699
0.156875,65.5106
0.15701,65.5541
0.157136,65.6
0.157259,65.6486
0.157375,65.6993
0.157488,65.7528
0.157594,65.8082
0.157693,65.8656
0.157789,65.9247
0.157881,65.9855
0.157974,66.047
0.158063,66.1093
0.158159,66.171
0.158257,66.2318
0.158359,66.2904
0.158466,66.3458
0.158579,66.3978
0.158695,66.4457
0.15882,66.4891
0.158951,66.5285
0.159093,66.5636
0.159242,66.5953
0.159398,66.624
0.159559,66.6503
0.159718,66.6754
0.159873,66.7007
0.160028,66.7268
0.160174,66.7545
0.160318,66.7846
0.160457,66.817
0.160589,66.8519
0.160718,66.889
0.160843,66.9286
0.160959,66.9708
0.16107,67.0155
0.161174,67.0621
0.161271,67.1105
0.161363,67.1603
0.161452,67.2111
0.161544,67.2623
0.161632,67.3139
0.161721,67.3649
0.161816,67.4142
0.161914,67.4611
0.162022,67.5043
0.162138,67.5426
0.162261,67.5756
0.162397,67.6027
0.162542,67.6253
0.162697,67.6445
0.162853,67.6616
0.163017,67.6779
0.163178,67.6941
0.163339,67.7118
0.163488,67.7324
0.163629,67.7568
0.163754,67.7864
0.163869,67.8211
0.163972,67.8599
0.164071,67.9016
0.164166,67.9456
0.16426,67.9902
0.164356,68.0337
0.164459,68.0735
0.16457,68.1096
0.164687,68.1428
0.164807,68.1736
0.164929,68.2018
0.165058,68.2283
0.165191,68.2532
0.165325,68.2775
0.165457,68.3016
0.16559,68.3276
0.165707,68.3578
0.165823,68.3917
0.16593,68.4286
0.166028,68.4681
0.166123,68.5094
0.166213,68.5516
0.166301,68.5949
0.166389,68.6376
0.166482,68.6801
0.166572,68.7208
0.16667,68.7592
0.166778,68.7938
0.166896,68.8226
0.167047,68.8364
0.167237,68.8303
0.167456,68.8088
0.167699,68.7759
0.167956,68.7351
0.168227,68.6887
0.168509,68.6379
0.168792,68.5845
0.169078,68.5295
0.169358,68.4758
0.169614,68.4316
0.169837,68.4017
0.170035,68.3818
0.17022,68.3681
0.170393,68.3576
0.170562,68.3493
0.170723,68.3428
0.170885,68.3377
0.17104,68.334
0.171188,68.3316
0.171336,68.3304
0.171481,68.3306
0.171623,68.3319
0.171763,68.3344
0.171899,68.3377
0.172037,68.3413
0.17217,68.3447
0.172302,68.348
0.172435,68.3511
0.172568,68.3542
0.172701,68.3574
0.17283,68.3611
0.172957,68.3655
0.173097,68.3657
0.173249,68.3596
0.173409,68.3482
0.173581,68.3327
0.173756,68.3139
0.173938,68.2924
0.174126,68.2684
0.174314,68.2421
0.174507,68.2139
0.174701,68.1837
0.174888,68.1564
0.175058,68.1343
0.175222,68.1157
0.175382,68.0988
0.175538,68.0823
0.175695,68.0651
0.175854,68.0462
0.17602,68.024
0.176197,67.9969
0.176391,67.9612
0.176632,67.9009
0.177046,67.7584
0.177721,67.4869
0.178518,67.1568
0.179422,66.774
0.180399,66.3541
0.181429,65.9088
0.182482,65.4517
0.183542,64.983
0.184595,64.5123
0.185594,64.0533
0.186434,63.6685
0.186994,63.4009
0.187454,63.1822
0.187813,63.0093
0.188116,62.8629
0.188385,62.73
0.188644,62.6021
0.188892,62.4761
0.189138,62.3511
0.189378,62.2252
0.189614,62.1002
0.189853,61.9742
0.190089,61.8472
0.190322,61.7193
0.190559,61.5894
0.190809,61.4517
0.191086,61.2984
0.191404,61.1246
0.191761,60.9312
0.192148,60.7232
0.192549,60.5045
0.192968,60.2779
0.193397,60.0455
0.193827,59.8111
0.194244,59.5767
0.194643,59.3502
0.195,59.1402
0.195309,58.9498
0.195579,58.7759
0.195833,58.607
0.1961,58.4302
0.1964,58.2359
0.196739,58.024
0.197119,57.7896
0.197546,57.5337
0.197994,57.2642
0.198456,56.9908
0.198917,56.7134
0.199373,56.438
0.199812,56.1666
0.20021,55.9127
0.200554,55.6822
0.20083,55.4771
0.201044,55.3013
0.201197,55.1539
0.201308,55.024
0.201391,54.9063
0.201452,54.7989
0.201489,54.7007
0.201511,54.6133
0.20151,54.5352
0.2015,54.4639
0.201476,54.398
0.201447,54.3365
0.201413,54.2784
0.201377,54.2227
0.201334,54.1692
0.201292,54.1168
0.201251,54.0633
0.201215,54.0079
0.201188,53.949
0.201175,53.8865
0.201172,53.8196
0.201186,53.7469
0.201213,53.6673
0.201257,53.5818
0.201312,53.4905
0.201381,53.3939
0.201459,53.2933
0.201545,53.1898
0.201634,53.0838
0.201723,52.9764
0.201813,52.868
0.201901,52.761
0.201985,52.6561
0.20206,52.5535
0.202133,52.4539
0.202196,52.3577
0.202252,52.2645
0.202303,52.1751
0.202344,52.0897
0.202384,52.0071
0.202414,51.928
0.20244,51.8524
0.202463,51.7796
0.202477,51.7094
0.202488,51.643
0.202488,51.578
0.202489,51.516
0.202482,51.4559
0.202477,51.3981
0.202468,51.3422
0.202453,51.2875
0.202441,51.2345
0.202432,51.1825
0.202419,51.1312
0.202408,51.0805
0.202396,51.0302
0.202386,50.9801
0.202376,50.9303
0.202366,50.8803
0.202359,50.8302
0.202353,50.7797
0.202348,50.7289
0.202344,50.6774
0.202345,50.6254
0.202343,50.5726
0.202346,50.5197
0.202351,50.4662
0.202357,50.413
0.202366,50.3595
0.202374,50.3063
0.202385,50.2535
0.202392,50.2011
0.202397,50.1493
0.202404,50.0983
0.20241,50.048
0.202416,49.9984
0.202425,49.9493
0.202429,49.901
0.202434,49.8534
0.202438,49.8068
0.202441,49.7604
0.202442,49.715
0.202445,49.6698
0.202447,49.6256
0.202451,49.5819
0.20245,49.5387
0.202454,49.496
0.202454,49.454
0.202455,49.4127
0.202458,49.372
0.202459,49.3322
0.202464,49.2931
0.202465,49.2548
0.202467,49.2172
0.202468,49.1803
0.20247,49.1442
0.202471,49.1088
0.20247,49.0743
0.20247,49.0402
0.20247,49.0067
0.202472,48.9738
0.202472,48.9413
0.202471,48.9093
0.20247,48.8778
0.202473,48.8468
0.202469,48.8163
0.20247,48.7863
0.20247,48.7567
0.20247,48.7275
0.202468,48.6989
0.202468,48.6707
0.20247,48.643
0.202471,48.6157
0.202469,48.5891
0.20247,48.5631
0.20247,48.5377
0.202469,48.5131
0.20247,48.4888
0.202469,48.4651
0.202468,48.4421
0.202468,48.4198
0.202469,48.398
0.20247,48.3766
0.202469,48.3558
0.20247,48.3357
0.202467,48.3162
0.202471,48.2971
0.202472,48.2788
0.202474,48.261
0.202474,48.2438
0.202474,48.2272
0.202475,48.2111
0.202475,48.1956
0.202477,48.1807
0.202481,48.1663
0.20248,48.1524
0.202479,48.1391
0.20248,48.1262
0.202479,48.1138
0.202481,48.1018
0.202481,48.0903
0.202484,48.0792
0.202486,48.0685
0.202486,48.0584
0.202489,48.0486
0.202491,48.0393
0.202492,48.0303
0.202495,48.0219
0.202494,48.0139
0.202498,48.0064
0.202501,47.9993
0.202503,47.9925
0.202505,47.9861
0.202509,47.98
0.202512,47.9743
0.202514,47.969
0.202519,47.9641
0.202522,47.9596
0.202525,47.9555
0.20253,47.9517
0.202534,47.9481
0.202538,47.9449
0.202544,47.9419
0.20255,47.9392
0.202555,47.9368
0.202557,47.9345
0.202561,47.9325
0.202565,47.9306
0.202569,47.9288
0.202572,47.9272
0.202577,47.9259
0.202583,47.9247
0.202591,47.9237
0.202595,47.923
0.202602,47.9224
0.202612,47.9219
0.202621,47.9217
0.20263,47.9217
0.202638,47.9218
0.202652,47.9221
0.202663,47.9225
0.202676,47.923
0.202689,47.9238
0.202705,47.9247
0.20272,47.9256
0.202733,47.9266
0.202748,47.9278
0.202766,47.9291
0.202786,47.9304
0.202803,47.9319
0.202823,47.9335
0.202846,47.9352
0.202866,47.9367
0.202889,47.9384
0.202911,47.9401
0.202934,47.9418
0.202959,47.9435
0.202985,47.9451
0.203014,47.9468
0.203042,47.9485
0.203071,47.9501
0.203099,47.9517
0.203131,47.9532
0.203163,47.9547
0.203198,47.9561
0.20323,47.9576
0.203265,47.9589
0.2033,47.9602
0.203335,47.9614
0.203371,47.9624
0.203409,47.9635
0.203448,47.9645
0.203489,47.9655
0.203528,47.9665
0.203569,47.9675
0.203614,47.9684
0.203656,47.9693
0.2037,47.9701
0.203745,47.971
0.203793,47.9719
0.203838,47.9727
0.203883,47.9734
0.203931,47.974
0.203979,47.9745
0.204028,47.9747
0.204077,47.9749
0.204129,47.975
0.204182,47.9749
0.204235,47.9747
0.204288,47.9744
0.204344,47.974
0.204397,47.9736
0.204453,47.9731
0.204509,47.9727
0.204562,47.9723
0.204615,47.9719
0.204671,47.9716
0.204727,47.9713
0.204783,47.971
0.204839,47.9707
0.204894,47.9705
0.204953,47.9701
0.205009,47.9699
0.205068,47.9696
0.205126,47.9694
0.205185,47.9693
0.205243,47.9693
0.2053,47.9696
0.205357,47.97
0.205417,47.9707
0.205473,47.9716
0.205532,47.9728
0.20559,47.9743
0.205645,47.9759
0.205705,47.9778
0.205761,47.9799
0.205818,47.9821
0.205874,47.9842
0.205934,47.9864
0.205991,47.9884
0.206051,47.9902
0.206109,47.9918
0.20617,47.9931
0.206231,47.9943
0.206294,47.9951
0.206357,47.9956
0.206422,47.996
0.206486,47.9963
0.206552,47.9967
0.206618,47.9972
0.20668,47.9978
0.206745,47.9988
0.206809,48.0002
0.206872,48.002
0.206932,48.0041
0.206994,48.0067
0.207054,48.0097
0.207114,48.013
0.207176,48.0168
0.207234,48.0209
0.207295,48.0253
0.207355,48.03
0.207415,48.0348
0.207474,48.0397
0.207534,48.0448
0.207596,48.0499
0.207655,48.0552
0.207716,48.0605
0.207777,48.0661
0.207838,48.0719
0.207898,48.0779
0.20796,48.0845
0.208015,48.0915
0.208075,48.0992
0.20813,48.1075
0.208181,48.1166
0.208236,48.1264
0.208287,48.1371
0.208339,48.1485
0.208386,48.1608
0.208435,48.174
0.208484,48.1879
0.208529,48.2026
0.208573,48.2181
0.208618,48.2342
0.208659,48.2509
0.208702,48.2682
0.208746,48.2859
0.208784,48.3041
0.208827,48.3227
0.208867,48.3415
0.208911,48.3605
0.208953,48.3797
0.208998,48.3989
0.209039,48.4179
0.209085,48.4368
0.20913,48.4556
0.209176,48.4741
0.209223,48.4924
0.209267,48.5104
0.209314,48.5283
0.209362,48.546
0.20941,48.5633
0.209458,48.5806
0.20951,48.5978
0.209561,48.6152
0.209612,48.6326
0.20966,48.6503
0.20971,48.6683
0.209762,48.6865
0.209811,48.7049
0.209863,48.7237
0.209913,48.7427
0.209966,48.7621
0.210015,48.782
0.210066,48.8026
0.210118,48.8233
0.210167,48.8445
0.210215,48.8663
0.210263,48.8884
0.210312,48.9108
0.21036,48.9339
0.210407,48.9576
0.21045,48.9819
0.210493,49.007
0.210535,49.0333
0.210577,49.0606
0.210614,49.0893
0.210651,49.1193
0.210684,49.1508
0.210711,49.184
0.210741,49.2187
0.210766,49.2546
0.210792,49.2922
0.210813,49.3312
0.210832,49.3713
0.210854,49.4125
0.210875,49.4545
0.210891,49.4973
0.210909,49.5405
0.210929,49.5844
0.210945,49.6286
0.210959,49.6733
0.210976,49.7184
0.210993,49.7639
0.211009,49.8095
0.211027,49.8557
0.211044,49.902
0.211063,49.9487
0.211082,49.996
0.211102,50.0436
0.211122,50.0917
0.211141,50.1401
0.211162,50.1887
0.211186,50.2375
0.21121,50.2866
0.211231,50.3354
0.211257,50.3845
0.211281,50.4335
0.211304,50.4821
0.211332,50.5307
0.211357,50.579
0.211388,50.6269
0.211417,50.6747
0.211447,50.7224
0.211477,50.7695
0.21151,50.8163
0.211548,50.863
0.211586,50.9091
0.211625,50.9548
0.211669,50.9997
0.211713,51.0441
0.211757,51.0878
0.211802,51.1303
0.211853,51.1718
0.211906,51.2123
0.211961,51.2516
0.212018,51.29
0.212081,51.3266
0.21215,51.3622
0.212218,51.3967
0.212292,51.4301
0.212367,51.4626
0.212445,51.4938
0.212527,51.5242
0.212612,51.5533
0.2127,51.5812
0.212786,51.6083
0.212874,51.6346
0.212961,51.6602
0.213048,51.6852
0.213137,51.7098
0.213227,51.7338
0.213314,51.7575
0.213402,51.7811
0.213496,51.8046
0.213586,51.8282
0.213673,51.852
0.213764,51.8758
0.213854,51.8996
0.213944,51.9233
0.214035,51.9471
0.214122,51.9708
0.214209,51.9947
0.214294,52.0185
0.214377,52.0427
0.214464,52.0667
0.214551,52.0908
0.214638,52.1146
0.214726,52.1384
0.214816,52.1619
0.214905,52.1852
0.214997,52.2079
0.215088,52.23
0.215183,52.2514
0.215277,52.272
0.215373,52.2918
0.21547,52.3111
0.215564,52.3299
0.21566,52.3482
0.215757,52.3661
0.215851,52.3837
0.215948,52.4014
0.216042,52.4194
0.216135,52.4376
0.21623,52.456
0.216325,52.4747
0.21642,52.4935
0.216515,52.5124
0.216606,52.5314
0.216697,52.5507
0.21679,52.5701
0.216881,52.5898
0.216967,52.6097
0.217053,52.6298
0.217144,52.6503
0.217232,52.6714
0.217317,52.6933
0.217401,52.716
0.217486,52.7396
0.217566,52.7639
0.217651,52.789
0.217728,52.8149
0.217808,52.841
0.217883,52.8676
0.217965,52.8942
0.21804,52.9208
0.218119,52.9473
0.218193,52.9734
0.218274,52.999
0.218354,53.0237
0.218435,53.0475
0.218519,53.0701
0.218609,53.0914
0.218699,53.1109
0.218797,53.1285
0.218899,53.1434
0.219008,53.1553
0.219125,53.1635
0.219248,53.167
0.219385,53.1653
0.219532,53.1575
0.219693,53.1429
0.219865,53.1221
0.220051,53.0953
0.220246,53.0629
0.220453,53.025
0.220669,52.9823
0.220893,52.9359
0.221119,52.8871
0.221348,52.8368
0.221575,52.7862
0.221797,52.736
0.222019,52.6866
0.222238,52.6383
0.222449,52.5914
0.222658,52.5465
0.222858,52.5035
0.22305,52.462
0.22324,52.4225
0.223421,52.3844
0.223601,52.348
0.223774,52.3133
0.223945,52.2801
0.22411,52.2482
0.224269,52.2175
0.224427,52.1877
0.224582,52.1592
0.224737,52.1316
0.224886,52.1049
0.22503,52.0788
0.225176,52.0533
0.225322,52.0279
0.225464,52.0024
0.225608,51.9764
0.225751,51.9496
0.225897,51.921
0.226049,51.89
0.226204,51.8558
0.226371,51.8173
0.226545,51.7728
0.226737,51.7203
0.22695,51.6573
0.2272,51.5753
0.227507,51.465
0.227886,51.3195
0.228325,51.1446
0.228812,50.9464
0.229327,50.7345
0.229857,50.5118
0.230398,50.2853
0.230933,50.0558
0.231459,49.8292
0.231951,49.6144
0.232394,49.421
0.232765,49.255
0.233084,49.1144
0.233364,48.9899
0.233616,48.8756
0.233855,48.7677
0.234081,48.6642
0.234301,48.5631
0.234515,48.464
0.234724,48.3658
0.234931,48.2675
0.235137,48.1693
0.235344,48.0707
0.235552,47.9721
0.235756,47.8734
0.235961,47.7743
0.236166,47.6752
0.236373,47.5751
0.23658,47.474
0.236789,47.372
0.236998,47.2689
0.237207,47.1649
0.237416,47.0604
0.237626,46.955
0.237835,46.848
0.238042,46.7416
0.238251,46.6347
0.238449,46.5292
0.238645,46.4262
0.238832,46.3256
0.239012,46.2294
0.239175,46.1376
0.23933,46.0516
0.239467,45.9716
0.239589,45.8974
0.239703,45.828
0.239803,45.7645
0.239891,45.7052
0.239973,45.6498
0.240046,45.598
0.240111,45.5494
0.240171,45.5038
0.240226,45.4603
0.240274,45.4191
0.240326,45.3798
0.240366,45.3422
0.240406,45.306
0.240444,45.2711
0.240478,45.2374
0.240514,45.205
0.240547,45.1737
0.240578,45.1432
0.240609,45.1139
0.240633,45.0855
0.240661,45.0581
0.240686,45.0319
0.24071,45.0065
0.240731,44.9822
0.240754,44.9586
0.240775,44.9358
0.240794,44.9136
0.240813,44.8921
0.240833,44.8712
0.240852,44.851
0.240869,44.8312
0.240886,44.8119
0.240905,44.7929
0.240923,44.7743
0.24094,44.7562
0.240957,44.7384
0.240975,44.7211
0.240993,44.7041
0.24101,44.6874
0.241026,44.6712
0.241045,44.655
0.241066,44.6392
0.241084,44.6237
0.241104,44.6083
0.24112,44.5935
0.241142,44.5787
0.24116,44.5643
0.241178,44.5502
0.241198,44.5363
0.24122,44.5226
0.24124,44.5091
0.241261,44.4958
0.241282,44.4828
0.241303,44.4701
0.241323,44.4575
0.241346,44.4452
0.241368,44.4329
0.24139,44.4209
0.241412,44.4091
0.241436,44.3974
0.24146,44.3858
0.241484,44.3743
0.241507,44.363
0.24153,44.3518
0.241553,44.3407
0.241576,44.3298
0.241598,44.3192
0.24162,44.3085
0.241642,44.2982
0.241666,44.2878
0.24169,44.2778
0.241713,44.2678
0.241739,44.2581
0.241764,44.2487
0.241789,44.2394
0.241817,44.2302
0.241845,44.2211
0.241872,44.2123
0.241898,44.2036
0.241927,44.1952
0.241956,44.1869
0.241984,44.1788
0.242013,44.1708
0.242044,44.1629
0.242074,44.1551
0.242105,44.1475
0.242137,44.1401
0.24217,44.1326
0.242203,44.1253
0.242238,44.1181
0.24227,44.1109
0.242305,44.1039
0.24234,44.097
0.242378,44.09
0.242412,44.083
0.24245,44.0761
0.242485,44.0692
0.242525,44.0624
0.242562,44.0557
0.242602,44.0491
0.242639,44.0425
0.242679,44.0359
0.242718,44.0293
0.242761,44.0229
0.242803,44.0166
0.242845,44.0103
0.242887,44.0041
0.242932,43.9979
0.242976,43.9917
0.243021,43.9857
0.243065,43.9797
0.243109,43.9737
0.243153,43.968
0.2432,43.9624
0.243246,43.9568
0.243292,43.9514
0.243338,43.9461
0.243384,43.941
0.243429,43.936
0.243477,43.9311
0.243524,43.9264
0.243572,43.9218
0.243618,43.9174
0.243668,43.913
0.243718,43.9088
0.243767,43.9048
0.243815,43.9009
0.243864,43.8972
0.243911,43.8938
0.243962,43.8907
0.244011,43.888
0.244056,43.8857
0.244107,43.8838
0.244156,43.8826
0.244201,43.8818
0.244247,43.8818
0.244291,43.8832
0.244334,43.8862
0.244374,43.891
0.244409,43.8976
0.244441,43.9061
0.244472,43.9162
0.244498,43.9279
0.24452,43.9411
0.244542,43.9557
0.244562,43.9715
0.24458,43.9878
0.244601,44.0045
0.244622,44.021
0.244643,44.0374
0.244665,44.0534
0.24469,44.0692
0.244716,44.085
0.244742,44.1007
0.244767,44.1163
0.244796,44.1317
0.244826,44.1469
0.244856,44.162
0.244886,44.1769
0.244922,44.1917
0.244953,44.2062
0.244988,44.2204
0.245026,44.2342
0.245063,44.2474
0.245106,44.2601
0.245148,44.2721
0.245195,44.2834
0.24524,44.2938
0.24529,44.3034
0.245345,44.3119
0.245402,44.3194
0.245462,44.3254
0.245522,44.3303
0.245587,44.3336
0.245654,44.3351
0.245727,44.335
0.245804,44.333
0.245885,44.3289
0.245967,44.3227
0.246058,44.3142
0.246156,44.3032
0.246257,44.2896
0.246364,44.2729
0.246478,44.2531
0.246599,44.2296
0.246732,44.202
0.246871,44.17
0.247019,44.1334
0.247178,44.0916
0.247351,44.0435
0.247543,43.9857
0.247791,43.8993
