"Maximum force",90.6725,"N"
"Gage length ",1.19316,"mm"
"Strain energy",20.2883,"mJ"
"Deformation at maximum force",0.408733,"mm"
"Standard travel","Standard force"
"mm","N"
0,0.283369
-1.59442e-006,0.284128
2.98023e-007,0.284607
-8.00937e-008,0.284788
2.4084e-006,0.284983
2.49408e-006,0.284945
5.63823e-006,0.284828
5.91204e-006,0.284703
9.3393e-006,0.284453
9.4478e-006,0.284404
1.19661e-005,0.284584
1.12806e-005,0.284912
1.04238e-005,0.28532
9.00077e-006,0.285991
1.05803e-005,0.286621
9.04547e-006,0.287349
7.30949e-006,0.28817
5.81192e-006,0.288883
4.48572e-006,0.289512
6.177e-006,0.290084
5.24195e-006,0.290531
4.54532e-006,0.290859
7.03381e-006,0.291055
7.02165e-006,0.291064
7.02162e-006,0.291064
6.97203e-006,0.291087
7.02162e-006,0.291064
6.85678e-006,0.291142
6.51032e-006,0.291306
6.26259e-006,0.291424
8.8554e-006,0.291565
8.25935e-006,0.291855
7.68193e-006,0.292128
7.01883e-006,0.292442
6.37435e-006,0.292748
6.15922e-006,0.29285
8.67751e-006,0.29303
8.454e-006,0.29314
8.58531e-006,0.293078
8.454e-006,0.29314
8.40417e-006,0.293163
8.437e-006,0.293148
7.96016e-006,0.293375
7.4796e-006,0.293602
9.96809e-006,0.293797
9.02932e-006,0.294244
8.22093e-006,0.294627
7.31196e-006,0.295058
6.07516e-006,0.295646
5.47539e-006,0.295928
5.02836e-006,0.296141
4.49937e-006,0.29639
4.49922e-006,0.296391
4.61471e-006,0.296337
5.02821e-006,0.296141
5.8515e-006,0.29575
6.63009e-006,0.295382
7.22613e-006,0.2951
7.90414e-006,0.294778
8.15187e-006,0.29466
8.18563e-006,0.294644
8.33371e-006,0.294574
8.03755e-006,0.294714
7.47503e-006,0.294981
6.56606e-006,0.29541
5.53043e-006,0.295902
4.32343e-006,0.296474
3.31016e-006,0.296955
2.33413e-006,0.297417
1.52574e-006,0.2978
1.19419e-006,0.297957
9.46458e-007,0.298076
7.30392e-007,0.298177
8.12348e-007,0.298139
9.6136e-007,0.298068
9.11999e-007,0.298091
1.42236e-006,0.297849
1.8694e-006,0.297637
2.0687e-006,0.297544
2.57907e-006,0.2973
2.61446e-006,0.297285
2.49897e-006,0.297339
2.54833e-006,0.297316
2.54845e-006,0.297316
2.44927e-006,0.297363
2.76219e-006,0.297214
2.714e-006,0.297237
2.54915e-006,0.297316
2.4658e-006,0.297355
2.15287e-006,0.297504
1.54193e-006,0.297794
1.26067e-006,0.297926
7.65204e-007,0.298162
-1.10239e-007,0.298576
-6.57857e-007,0.298835
-1.0546e-006,0.299023
-1.68045e-006,0.299321
-1.9971e-006,0.29947
-2.21223e-006,0.299572
-2.67417e-006,0.299791
-2.26253e-006,0.299597
-1.89931e-006,0.299424
-1.40385e-006,0.299188
-5.28403e-007,0.298775
-3.29392e-008,0.298539
4.14096e-007,0.298327
1.15915e-006,0.297974
1.58942e-006,0.29777
1.73751e-006,0.2977
1.98524e-006,0.297582
1.54006e-006,0.297793
8.65787e-007,0.298114
4.67181e-007,0.298302
-3.26306e-007,0.298678
-1.05274e-006,0.299023
-1.8127e-006,0.299384
-2.7552e-006,0.29983
-3.36987e-006,0.30012
-3.48535e-006,0.300175
-3.66696e-006,0.300261
-3.65113e-006,0.300254
-3.04018e-006,0.299966
-3.05578e-006,0.299972
-2.97336e-006,0.299933
-2.47789e-006,0.299698
-2.60921e-006,0.29976
-2.31305e-006,0.29962
-1.94983e-006,0.299447
-2.09698e-006,0.299517
-2.11351e-006,0.299525
-1.61805e-006,0.299291
-2.09489e-006,0.299517
-1.94867e-006,0.299447
-1.5184e-006,0.299244
-1.76613e-006,0.299361
-1.22224e-006,0.299103
-8.42258e-007,0.298922
-9.72644e-007,0.298984
-9.89291e-007,0.298992
-1.03888e-006,0.299016
-2.02981e-006,0.299485
-2.46008e-006,0.299689
-2.78977e-006,0.299846
-3.7807e-006,0.300315
-3.94834e-006,0.300395
-4.39351e-006,0.300606
-5.33601e-006,0.301053
-5.63403e-006,0.301194
-5.78304e-006,0.301264
-6.04754e-006,0.301389
-5.35463e-006,0.301061
-4.66173e-006,0.300733
-4.31341e-006,0.300568
-3.02446e-006,0.299958
-2.37999e-006,0.299651
-2.11363e-006,0.299526
-9.73691e-007,0.298988
-6.92432e-007,0.298852
-7.41326e-007,0.298875
-9.68512e-008,0.29857
-7.89755e-007,0.298898
-1.46776e-006,0.299218
-1.88127e-006,0.299415
-3.40118e-006,0.300136
-4.63798e-006,0.300723
-5.05521e-006,0.30092
-6.53788e-006,0.301622
-7.20471e-006,0.301938
-7.05662e-006,0.301868
-7.86501e-006,0.302251
-7.38818e-006,0.302025
-6.57979e-006,0.301642
-6.52763e-006,0.301617
-5.5069e-006,0.301133
-7.41425e-006,0.300662
-7.33462e-006,0.300622
-6.19469e-006,0.300084
-5.51668e-006,0.299762
-5.8948e-006,0.29994
-5.18699e-006,0.299605
-5.26755e-006,0.299643
-6.04241e-006,0.300011
-5.8962e-006,0.299941
-6.47362e-006,0.300213
-7.42729e-006,0.300667
-7.05476e-006,0.300489
-7.59865e-006,0.300747
-8.12765e-006,0.300996
-7.45337e-006,0.300678
-8.07549e-006,0.300974
-8.37538e-006,0.301116
-7.81658e-006,0.30085
-8.14441e-006,0.301006
-8.29249e-006,0.301077
-7.61821e-006,0.300756
-8.40797e-006,0.30113
-8.63987e-006,0.301241
-8.40984e-006,0.301132
-9.36351e-006,0.301586
-9.56561e-006,0.30168
-9.31974e-006,0.301562
-9.89343e-006,0.301835
-9.50042e-006,0.301649
-8.6436e-006,0.301243
-8.64048e-006,0.301241
-7.67191e-006,0.300779
-6.75921e-006,0.300348
-6.68983e-006,0.300317
-5.83301e-006,0.29991
-5.38411e-006,0.299698
-5.86095e-006,0.299925
-5.54989e-006,0.299776
-5.86281e-006,0.299925
-7.18157e-006,0.30055
-7.82977e-006,0.300856
-9.23048e-006,0.301519
-1.06833e-005,0.30221
-1.10205e-005,0.302369
-1.17469e-005,0.302712
-1.22759e-005,0.302964
-1.15681e-005,0.302628
-1.14512e-005,0.302573
-1.09893e-005,0.302354
-9.73758e-006,0.301759
-9.15644e-006,0.301484
-8.11336e-006,0.300992
-6.72755e-006,0.300336
-6.4258e-006,0.300192
-6.09611e-006,0.300035
-5.64908e-006,0.299824
-6.47237e-006,0.300215
-7.31428e-006,0.300613
-7.79484e-006,0.300841
-8.81557e-006,0.301326
-9.33339e-006,0.30157
-9.6817e-006,0.301734
-1.0505e-005,0.302125
-1.04755e-005,0.302111
-1.03764e-005,0.302064
-1.06073e-005,0.302173
-1.04099e-005,0.30208
-9.78403e-006,0.301782
-9.96285e-006,0.301868
-9.56797e-006,0.30168
-9.21965e-006,0.301516
-9.74492e-006,0.301766
-9.81383e-006,0.301797
-1.011e-005,0.301937
-1.0788e-005,0.302258
-1.07896e-005,0.30226
-1.07896e-005,0.30226
-1.10206e-005,0.302369
-1.02457e-005,0.302001
-9.56773e-006,0.301681
-9.43455e-006,0.301617
-5.59005e-006,0.301171
-5.12253e-006,0.300952
-5.08947e-006,0.300936
-4.19912e-006,0.300514
-4.08131e-006,0.300458
-4.27875e-006,0.300551
-4.21356e-006,0.30052
-5.23429e-006,0.301005
-6.56049e-006,0.301631
-7.17144e-006,0.301922
-8.58705e-006,0.302594
-9.69718e-006,0.30312
-9.81732e-006,0.303176
-1.05438e-005,0.30352
-1.04953e-005,0.303498
-9.86948e-006,0.3032
-9.73537e-006,0.303137
-9.14305e-006,0.302857
-7.78704e-006,0.302216
-7.15747e-006,0.301916
-5.88342e-006,0.301314
-4.57957e-006,0.300696
-4.32997e-006,0.300576
-3.98166e-006,0.300411
-3.91553e-006,0.300379
-5.00332e-006,0.300894
-5.74838e-006,0.301247
-6.54186e-006,0.301625
-7.92767e-006,0.302281
-8.32814e-006,0.302471
-8.8087e-006,0.302698
-9.68414e-006,0.303113
-9.84992e-006,0.303192
-9.63572e-006,0.30309
-1.00641e-005,0.303293
-9.15888e-006,0.302864
-8.61126e-006,0.302605
-8.34677e-006,0.30248
-7.4378e-006,0.302049
-7.28878e-006,0.301978
-7.56818e-006,0.30211
-7.58553e-006,0.302119
-8.06236e-006,0.302346
-8.82232e-006,0.302706
-8.51312e-006,0.302558
-8.49496e-006,0.30255
-8.54432e-006,0.302573
-7.68751e-006,0.302167
-7.45374e-006,0.302056
-6.89495e-006,0.301791
-5.91892e-006,0.301327
-5.68516e-006,0.301218
-5.27166e-006,0.301022
-4.72776e-006,0.300765
-5.05559e-006,0.300919
-5.35361e-006,0.30106
-5.78202e-006,0.301264
-7.24978e-006,0.301959
-8.57599e-006,0.302588
-9.70103e-006,0.303118
-1.10719e-005,0.303771
-1.15674e-005,0.304006
-1.18505e-005,0.30414
-1.23795e-005,0.30439
-1.19511e-005,0.304187
-1.12731e-005,0.303867
-1.06137e-005,0.303554
-9.44398e-006,0.302997
-8.18483e-006,0.302402
-7.30566e-006,0.301986
-6.06887e-006,0.301399
-5.02579e-006,0.300907
-7.55898e-006,0.300732
-7.41742e-006,0.300662
-7.63163e-006,0.300763
-8.5406e-006,0.301194
-9.31546e-006,0.301562
-1.04256e-005,0.302085
-1.18263e-005,0.302752
-1.27874e-005,0.303206
-1.33835e-005,0.303488
-1.42105e-005,0.303881
-1.44098e-005,0.303975
-1.43278e-005,0.303936
-1.43439e-005,0.303944
-1.3882e-005,0.303726
-1.29059e-005,0.303264
-1.18703e-005,0.302772
-1.06112e-005,0.302177
-9.68356e-006,0.301736
-9.51686e-006,0.301657
-9.43443e-006,0.301617
-9.58251e-006,0.301687
-1.02605e-005,0.302008
-1.07225e-005,0.302228
-1.10857e-005,0.3024
-1.16966e-005,0.30269
-1.20114e-005,0.302838
-1.24584e-005,0.30305
-1.29874e-005,0.3033
-1.30545e-005,0.303333
-1.26745e-005,0.303153
-1.241e-005,0.303028
-1.13371e-005,0.30252
-1.0674e-005,0.302205
-1.03276e-005,0.30204
-1.00631e-005,0.301916
-1.05082e-005,0.302126
-1.11863e-005,0.302447
-1.15979e-005,0.302643
-1.22908e-005,0.302971
-1.29539e-005,0.303284
-1.31532e-005,0.30338
-1.38796e-005,0.303723
-1.41274e-005,0.303842
-1.40796e-005,0.303819
-1.39972e-005,0.30378
-1.31888e-005,0.303396
-1.2183e-005,0.302919
-1.10878e-005,0.302401
-9.78391e-006,0.301783
-8.62907e-006,0.301233
-8.14479e-006,0.301006
-7.78157e-006,0.300834
-8.22674e-006,0.301044
-9.10337e-006,0.30146
-9.69569e-006,0.301741
-1.07686e-005,0.302248
-1.17744e-005,0.302729
-1.28845e-005,0.303251
-1.41586e-005,0.303854
-1.52315e-005,0.304365
-1.57977e-005,0.304632
-1.60957e-005,0.304774
-1.57661e-005,0.304618
-1.46485e-005,0.304088
-1.37171e-005,0.303647
-1.25921e-005,0.303117
-1.13404e-005,0.302522
-1.04761e-005,0.302112
-9.83166e-006,0.301807
-9.36973e-006,0.301586
-9.3185e-006,0.301562
-9.51594e-006,0.301656
-9.81397e-006,0.301796
-1.05404e-005,0.302142
-1.13674e-005,0.302533
-1.20789e-005,0.30287
-1.29358e-005,0.303277
-1.36808e-005,0.303629
-1.11029e-005,0.303779
-1.1305e-005,0.303881
-1.12063e-005,0.303834
-1.06959e-005,0.303592
-1.02005e-005,0.303357
-1.00822e-005,0.303302
-9.70221e-006,0.303122
-9.7017e-006,0.303121
-9.9811e-006,0.303254
-1.00486e-005,0.303286
-1.02302e-005,0.303372
-1.04621e-005,0.303481
-1.06437e-005,0.303568
-1.07266e-005,0.303607
-1.10563e-005,0.303763
-1.11564e-005,0.303811
-1.13045e-005,0.303881
-1.10586e-005,0.303764
-1.02652e-005,0.303388
-9.45677e-006,0.303005
-8.59622e-006,0.302597
-7.85117e-006,0.302246
-7.27375e-006,0.301971
-7.3706e-006,0.302017
-7.33777e-006,0.302001
-7.35407e-006,0.302009
-7.78248e-006,0.302212
-8.32637e-006,0.302469
-8.95595e-006,0.302767
-9.94687e-006,0.303238
-1.08894e-005,0.303684
-1.19623e-005,0.304192
-1.28899e-005,0.304632
-1.33853e-005,0.304868
-1.34377e-005,0.304892
-1.33064e-005,0.30483
-1.23155e-005,0.30436
-1.12575e-005,0.303861
-1.03634e-005,0.303435
-9.09681e-006,0.302833
-8.26607e-006,0.302442
-7.30495e-006,0.301986
-6.4295e-006,0.301572
-5.78503e-006,0.301265
-5.88282e-006,0.301311
-6.0309e-006,0.301382
-6.88771e-006,0.301788
-8.16176e-006,0.302391
-9.36876e-006,0.302963
-1.08216e-005,0.303654
-1.18125e-005,0.304123
-1.21963e-005,0.304304
-1.25613e-005,0.304477
-1.27597e-005,0.304571
-1.25287e-005,0.304461
-1.24626e-005,0.30443
-9.49728e-006,0.304398
-6.12962e-006,0.304179
-3.3729e-006,0.304249
5.26977e-006,0.304273
1.3674e-005,0.304429
2.44029e-005,0.304851
3.48933e-005,0.305393
4.50857e-005,0.306064
6.05829e-005,0.306991
7.60801e-005,0.307884
8.87759e-005,0.308769
0.000104035,0.309768
0.00012287,0.310539
0.000141347,0.311386
0.000159586,0.312377
0.000177825,0.313415
0.000195349,0.314743
0.000215376,0.316253
0.000235165,0.317916
0.000254,0.319976
0.000275219,0.322311
0.000295723,0.324981
0.000314677,0.328399
0.000331963,0.332611
0.000351036,0.337371
0.000367964,0.343109
0.000383819,0.349365
0.000401223,0.356262
0.000417078,0.363891
0.000435079,0.371887
0.000451768,0.380493
0.000470126,0.389709
0.000487531,0.399352
0.000501717,0.409179
0.000520671,0.419433
0.000539506,0.429809
0.000557984,0.440368
0.000575865,0.451171
0.00059625,0.462158
0.00061282,0.473571
0.000634397,0.485412
0.000652517,0.497497
0.00067314,0.509765
0.000693167,0.522277
0.000713075,0.534912
0.000736082,0.547424
0.000758613,0.560119
0.000780905,0.572998
0.000799979,0.585998
0.000827039,0.599365
0.000850642,0.612976
0.000874007,0.626647
0.000897134,0.640563
0.000922406,0.654724
0.000943983,0.66925
0.000967825,0.684143
0.000990713,0.699462
0.00101575,0.715087
0.00103709,0.731201
0.00106403,0.747314
0.00108799,0.763549
0.00111421,0.780029
0.00113984,0.796752
0.00116524,0.81372
0.00119015,0.83081
0.0012165,0.848632
0.00124213,0.866821
0.00126692,0.885375
0.0012941,0.904174
0.00132045,0.923339
0.00134894,0.942871
0.00137659,0.96289
0.0014002,0.983276
0.00142905,1.00415
0.0014542,1.02527
0.00148221,1.04639
0.00150987,1.06775
0.00153776,1.08899
0.0015653,1.11035
0.00159236,1.13196
0.00162181,1.15381
0.00164779,1.1759
0.00167617,1.19824
0.00170406,1.22095
0.0017341,1.24377
0.00176092,1.26697
0.00179001,1.29028
0.00181815,1.31421
0.00184819,1.3385
0.00187465,1.36316
0.0019029,1.38831
0.00193366,1.4137
0.00196084,1.43945
0.00199016,1.46545
0.00201925,1.49158
0.00205025,1.51819
0.00207778,1.54517
0.00210735,1.57239
0.00213929,1.59998
0.00217077,1.62769
0.002202,1.65564
0.00223585,1.68372
0.00226637,1.71191
0.00229951,1.74023
0.00233194,1.76904
0.00236126,1.79785
0.00239273,1.82703
0.00242397,1.8562
0.00245782,1.88574
0.0024881,1.9154
0.0025241,1.94519
0.00255367,1.97522
0.00258848,2.00561
0.00261971,2.03613
0.0026507,2.06702
0.0026836,2.09814
0.00271889,2.12964
0.0027506,2.16138
0.00278469,2.19336
0.00281807,2.22583
0.0028536,2.25854
0.00288578,2.2915
0.00292012,2.32495
0.00295445,2.35815
0.00298806,2.39185
0.00302144,2.42554
0.00305506,2.45923
0.0030882,2.49316
0.00312373,2.52734
0.00315901,2.56152
0.00319024,2.59619
0.00322672,2.63135
0.00325939,2.66675
0.00329682,2.70288
0.00333329,2.73926
0.00336882,2.77612
0.00340339,2.81348
0.00344011,2.85107
0.00347325,2.88916
0.00351139,2.92749
0.0035462,2.96606
0.00358077,3.00488
0.00361821,3.0437
0.00365564,3.08227
0.00368973,3.12134
0.00372597,3.16064
0.00376197,3.20019
0.0037944,3.23975
0.00382921,3.27978
0.00386688,3.31982
0.00390383,3.36011
0.00394031,3.40063
0.00397893,3.44165
0.00401374,3.48291
0.00405094,3.52441
0.00409051,3.56641
0.00412723,3.60815
0.00416609,3.65039
0.00420448,3.69263
0.00423952,3.73535
0.00427386,3.77832
0.0043132,3.82178
0.00434896,3.86548
0.00438687,3.90942
0.0044243,3.95361
0.0044634,3.99853
0.00449845,4.04394
0.00453826,4.0896
0.00457426,4.13599
0.00461527,4.18262
0.00465556,4.22974
0.00469228,4.2771
0.00473162,4.32446
0.00477048,4.37231
0.00480887,4.42017
0.00484701,4.46826
0.00488254,4.51611
0.00492355,4.56421
0.00496122,4.6123
0.00499889,4.66064
0.00503918,4.70898
0.0050759,4.75781
0.00511786,4.80688
0.00516268,4.85571
0.00520464,4.90478
0.00524923,4.95386
0.00529357,5.00317
0.00533434,5.05249
0.00537464,5.10229
0.00541731,5.15234
0.00545665,5.20264
0.00549885,5.25293
0.00554391,5.30322
0.0055885,5.35376
0.00563499,5.40454
0.0056779,5.45605
0.0057263,5.50732
0.00577422,5.55908
0.00582262,5.6106
0.00587102,5.66186
0.00591728,5.71313
0.00596615,5.76416
0.00601264,5.81519
0.00605913,5.86621
0.006103,5.91699
0.00615021,5.96753
0.00619408,6.01855
0.00624081,6.06934
0.00628992,6.12036
0.00633832,6.17187
0.00638625,6.22339
0.00643679,6.27539
0.00648376,6.32739
0.00653049,6.37964
0.00657936,6.43237
0.00662466,6.48511
0.00666972,6.53809
0.00671407,6.59155
0.0067608,6.64502
0.00680443,6.69873
0.00685331,6.75293
0.00690099,6.80737
0.00695106,6.86206
0.00699493,6.91724
0.00704428,6.97217
0.00709363,7.02734
0.0071406,7.08227
0.00718733,7.13721
0.0072312,7.19214
0.00727769,7.24731
0.00732347,7.30273
0.00736591,7.3584
0.00741049,7.41431
0.0074577,7.4707
0.00750705,7.5271
0.00755593,7.58374
0.00760075,7.64111
0.00764533,7.69849
0.00768634,7.7561
0.00773283,7.81396
0.00777384,7.87158
0.00782057,7.92944
0.0078642,7.9873
0.00790974,8.04565
0.00795504,8.104
0.00800272,8.1626
0.00805279,8.22168
0.00810214,8.28076
0.00815173,8.34009
0.00820109,8.39917
0.00824972,8.45874
0.00829502,8.51855
0.00834318,8.57837
0.00839063,8.63867
0.00843736,8.69922
0.00848337,8.76001
0.00852915,8.82104
0.00857731,8.88208
0.00862762,8.9436
0.00867482,9.00537
0.00872179,9.06714
0.00876852,9.12891
0.00881478,9.19116
0.00886365,9.25317
0.00890919,9.31567
0.00895735,9.37817
0.00900837,9.44067
0.00905868,9.50366
0.00911161,9.56665
0.00916406,9.63013
0.00921603,9.6936
0.00926706,9.75757
0.00931808,9.82153
0.00936576,9.88599
0.00941583,9.94995
0.0094628,10.0149
0.00951263,10.0793
0.00955864,10.1443
0.0096099,10.2092
0.00965711,10.2751
0.00970646,10.3411
0.00975272,10.4075
0.00980111,10.4744
0.00984618,10.5408
0.00989028,10.6082
0.00993344,10.676
0.0099785,10.7439
0.0100252,10.8127
0.0100746,10.8816
0.0101206,10.9509
0.0101692,11.0203
0.0102203,11.0896
0.0102679,11.1594
0.0103185,11.2288
0.0103659,11.2986
0.0104105,11.3684
0.0104608,11.4382
0.0105078,11.5085
0.010555,11.5784
0.0106074,11.6487
0.0106561,11.719
0.0107071,11.7898
0.0107572,11.8611
0.0108058,11.9333
0.0108506,12.0056
0.0108969,12.0789
0.0109417,12.1526
0.0109913,12.2268
0.0110392,12.302
0.011086,12.3777
0.0111317,12.4539
0.0111823,12.53
0.0112295,12.6072
0.0112764,12.6838
0.0113232,12.761
0.0113699,12.8381
0.0114169,12.9153
0.0114579,12.9919
0.0115049,13.0691
0.0115578,13.1458
0.0116086,13.2224
0.0116622,13.2986
0.0117104,13.3752
0.0117619,13.4514
0.0118103,13.5276
0.0118644,13.6038
0.0119218,13.6799
0.0119762,13.7561
0.012036,13.8323
0.0120954,13.9089
0.0121543,13.9856
0.012213,14.0627
0.012268,14.1399
0.01232,14.217
0.0123713,14.2947
0.0124189,14.3728
0.0124688,14.4509
0.0125191,14.5291
0.0125751,14.6072
0.0126283,14.6853
0.0126814,14.7634
0.0127313,14.8416
0.0127804,14.9202
0.0128281,14.9998
0.0128779,15.0793
0.012928,15.1589
0.0129809,15.2385
0.0130336,15.3181
0.0130887,15.3982
0.0131404,15.4783
0.0131914,15.5588
0.0132365,15.6394
0.0132849,15.7195
0.0133309,15.8
0.0133803,15.8796
0.0134325,15.9597
0.0134818,16.0398
0.0135309,16.1199
0.0135829,16.2
0.0136313,16.28
0.0136797,16.3606
0.0137274,16.4412
0.0137775,16.5222
0.0138294,16.6038
0.0138776,16.6853
0.0139339,16.7678
0.0139887,16.8503
0.0140371,16.9333
0.0140903,17.0173
0.014137,17.1013
0.014183,17.1853
0.0142309,17.2698
0.0142786,17.3547
0.0143261,17.4397
0.0143764,17.5247
0.0144267,17.6096
0.0144765,17.6951
0.014523,17.7805
0.0145735,17.866
0.0146222,17.9519
0.0146732,18.0383
0.0147302,18.1243
0.0147874,18.2107
0.0148446,18.2966
0.0149045,18.3831
0.0149607,18.4695
0.0150139,18.5559
0.0150668,18.6428
0.01512,18.7292
0.0151734,18.8157
0.0152299,18.9021
0.0152883,18.989
0.0153432,19.0764
0.0153975,19.1638
0.0154507,19.2517
0.0155,19.3401
0.0155511,19.4294
0.015604,19.5188
0.0156591,19.6086
0.0157134,19.699
0.0157678,19.7893
0.0158243,19.8796
0.0158774,19.9705
0.0159301,20.0618
0.0159821,20.1531
0.0160312,20.2444
0.0160832,20.3357
0.0161359,20.427
0.0161936,20.5183
0.0162482,20.6101
0.0163018,20.7019
0.016355,20.7942
0.0164075,20.887
0.0164623,20.9797
0.0165231,21.0725
0.016581,21.1653
0.0166473,21.2581
0.0167107,21.3508
0.0167713,21.4436
0.0168316,21.5369
0.0168915,21.6302
0.0169506,21.7235
0.0170097,21.8172
0.0170717,21.9105
0.0171361,22.0043
0.0171976,22.098
0.017256,22.1922
0.0173132,22.2865
0.0173752,22.3817
0.0174336,22.4769
0.0174951,22.5721
0.0175633,22.6669
0.017632,22.7616
0.0176945,22.8563
0.0177569,22.951
0.0178161,23.0458
0.0178723,23.141
0.0179293,23.2357
0.0179932,23.3295
0.0180552,23.4232
0.0181205,23.5165
0.0181825,23.6102
0.0182416,23.704
0.0182998,23.7977
0.0183608,23.8915
0.0184247,23.9857
0.0184886,24.0799
0.0185544,24.1742
0.0186169,24.2694
0.0186784,24.3646
0.0187335,24.4598
0.0187886,24.5555
0.018846,24.6512
0.0189013,24.7464
0.0189574,24.8417
0.019017,24.9364
0.0190771,25.0311
0.0191343,25.1254
0.0191889,25.2201
0.0192487,25.3143
0.019309,25.4086
0.0193701,25.5028
0.0194344,25.5965
0.0195022,25.6903
0.0195694,25.784
0.0196338,25.8778
0.0196981,25.972
0.019763,26.0653
0.0198283,26.1586
0.0198975,26.2518
0.0199676,26.3441
0.0200376,26.4364
0.0201082,26.5292
0.0201721,26.6214
0.0202427,26.7137
0.0203104,26.806
0.0203843,26.8978
0.0204596,26.9891
0.0205359,27.0804
0.0206146,27.1713
0.0206904,27.2626
0.0207639,27.3534
0.0208368,27.4447
0.0209079,27.535
0.0209846,27.6258
0.0210614,27.7162
0.0211353,27.807
0.0212078,27.8983
0.0212784,27.9906
0.0213456,28.0829
0.0214176,28.1761
0.0214863,28.2694
0.0215602,28.3627
0.0216365,28.4564
0.0217094,28.5502
0.0217814,28.6449
0.0218463,28.7396
0.0219169,28.8348
0.0219841,28.93
0.0220542,29.0253
0.0221238,29.1205
0.0221963,29.2162
0.0222645,29.3124
0.0223308,29.4095
0.0223932,29.5072
0.02246,29.6053
0.0225291,29.704
0.0226006,29.8026
0.022675,29.9017
0.0227466,30.0004
0.0228138,30.1
0.022881,30.1996
0.0229478,30.2992
0.0230145,30.3988
0.023088,30.4979
0.0231585,30.5975
0.0232286,30.6966
0.0232949,30.7967
0.0233598,30.8973
0.0234294,30.9984
0.0234985,31.1
0.0235677,31.201
0.0236454,31.3026
0.0237174,31.4042
0.0237861,31.5057
0.0238514,31.6073
0.0239134,31.7093
0.0239787,31.8114
0.024044,31.913
0.0241089,32.015
0.0241737,32.1171
0.0242345,32.2196
0.0242939,32.3231
0.0243485,32.4271
0.0244055,32.5316
0.0244653,32.6361
0.0245278,32.7406
0.0245907,32.8451
0.0246475,32.9496
0.0247042,33.0541
0.024761,33.1586
0.0248153,33.2631
0.0248733,33.3666
0.0249321,33.4701
0.0249937,33.5736
0.0250523,33.6776
0.0251095,33.7816
0.0251632,33.8866
0.025219,33.9916
0.0252771,34.0965
0.0253375,34.2025
0.0254004,34.308
0.0254595,34.4144
0.0255148,34.5209
0.0255694,34.6278
0.0256238,34.7347
0.0256786,34.8417
0.0257368,34.9486
0.0257978,35.055
0.0258565,35.1615
0.025912,35.2679
0.02597,35.3749
0.0260274,35.4818
0.0260854,35.5887
0.0261497,35.6952
0.0262141,35.8016
0.0262818,35.9081
0.0263462,36.014
0.0264077,36.121
0.0264716,36.2274
0.0265331,36.3339
0.0265956,36.4398
0.0266614,36.5458
0.0267305,36.6512
0.0267901,36.7572
0.026855,36.8631
0.0269165,36.9696
0.0269785,37.076
0.0270467,37.182
0.027122,37.2875
0.0271907,37.3934
0.0272598,37.4989
0.0273275,37.6048
0.0273933,37.7108
0.0274634,37.8158
0.0275373,37.9208
0.0276084,38.0253
0.0276823,38.1297
0.0277524,38.2352
0.0278244,38.3407
0.0278926,38.4466
0.0279665,38.5526
0.0280456,38.659
0.0281243,38.7655
0.0282021,38.8729
0.0282788,38.9803
0.0283532,39.0878
0.0284276,39.1947
0.0285025,39.3016
0.0285816,39.4081
0.0286612,39.514
0.0287414,39.6185
0.0288353,39.7152
0.0289502,39.8026
0.0290856,39.8822
0.0292487,39.9506
0.0297484,39.8544
0.0349059,37.5106
0.0404906,34.9637
0.0460753,32.4012
0.0516906,29.8387
0.0573058,27.2606
0.0629516,24.6825
0.0685363,22.0887
0.0739684,19.5106
0.079309,16.9169
0.0842223,14.4794
0.084265,14.2743
0.0838835,14.2609
0.0834944,14.2504
0.0831072,14.2375
0.0827258,14.2233
0.0823405,14.2085
0.0819476,14.1948
0.0815546,14.1828
0.0811675,14.1727
0.0807822,14.164
0.0804007,14.1568
0.0800269,14.1494
0.079674,14.1396
0.0793345,14.1255
0.0790121,14.1059
0.0787013,14.0812
0.0784094,14.0499
0.0781367,14.0126
0.0778849,13.9708
0.0776408,13.9252
0.0774138,13.8756
0.0771983,13.8221
0.0769999,13.7657
0.0768101,13.7084
0.076627,13.6505
0.0764534,13.5924
0.0762827,13.5328
0.0761197,13.4698
0.0759661,13.402
0.0758269,13.3287
0.0757058,13.2496
0.075597,13.1647
0.075505,13.0748
0.0754268,12.9796
0.0753567,12.8805
0.0752919,12.7794
0.0752351,12.6764
0.0751862,12.5743
0.0751359,12.4728
0.0750885,12.3727
0.0750396,12.2735
0.0749829,12.1749
0.0749257,12.0782
0.0748691,11.982
0.0748062,11.8883
0.074749,11.7955
0.0746894,11.7037
0.0746322,11.6124
0.0745718,11.5211
0.0745144,11.4298
0.0744572,11.3385
0.0744007,11.2482
0.074352,11.1583
0.0743024,11.0704
0.0742528,10.9835
0.0742044,10.8976
0.0741517,10.8126
0.0741043,10.7276
0.0740488,10.6437
0.0739915,10.5607
0.0739353,10.4801
0.0738714,10.4015
0.073807,10.3243
0.0737426,10.2491
0.0736806,10.1734
0.0736182,10.0983
0.0735552,10.0235
0.0734928,9.94982
0.073427,9.87804
0.0733645,9.80724
0.0733001,9.73839
0.0732417,9.66954
0.0731854,9.60118
0.0731304,9.53234
0.0730755,9.463
0.0730164,9.39464
0.0729577,9.32726
0.0728943,9.26232
0.072828,9.19884
0.0727613,9.13683
0.0726926,9.07555
0.0726273,9.01427
0.0725663,8.95372
0.0725009,8.89366
0.0724375,8.83556
0.0723641,8.77965
0.0722921,8.72545
0.0722206,8.67272
0.0721486,8.61998
0.0720828,8.56725
0.072022,8.51329
0.0719643,8.45934
0.0719044,8.40636
0.071847,8.35509
0.0717854,8.30577
0.0717215,8.25768
0.0716586,8.21031
0.0715942,8.16246
0.0715332,8.11412
0.0714722,8.06578
0.0714097,8.01842
0.0713453,7.97301
0.07128,7.92955
0.0712137,7.88829
0.0711451,7.84776
0.0710802,7.80675
0.0710194,7.76525
0.0709622,7.7235
0.0709028,7.68273
0.0708439,7.64318
0.0707838,7.60558
0.0707195,7.56993
0.070658,7.53453
0.0705964,7.49889
0.070545,7.46251
0.0704935,7.42638
0.0704431,7.39098
0.0703924,7.35729
0.0703387,7.32616
0.0702808,7.29711
0.0702226,7.26952
0.0701682,7.24169
0.0701151,7.213
0.0700662,7.18395
0.070018,7.15441
0.069967,7.12621
0.0699129,7.0996
0.06986,7.07506
0.0698056,7.05113
0.0697548,7.02696
0.069705,7.00243
0.0696609,6.97643
0.0696192,6.95079
0.069576,6.92589
0.0695345,6.90282
0.0694854,6.88207
0.0694368,6.86229
0.0693891,6.84361
0.0693469,6.82372
0.0693083,6.80345
0.0692708,6.7827
0.0692346,6.76256
0.0691943,6.74449
0.0691512,6.72777
0.0691066,6.71306
0.069066,6.6978
0.0690267,6.68205
0.0689938,6.6646
0.0689623,6.64641
0.068932,6.62908
0.0689028,6.6126
0.068868,6.5988
0.0688332,6.58635
0.0687967,6.57482
0.0687643,6.56255
0.0687376,6.549
0.068714,6.53539
0.068691,6.52153
0.0686666,6.50969
0.0686386,6.49956
0.0686122,6.49138
0.0685841,6.484
0.0685607,6.47582
0.0685388,6.46697
0.0685199,6.45659
0.0685031,6.44664
0.0684878,6.43743
0.0684686,6.42995
0.0684487,6.42424
0.0684311,6.41878
0.0684135,6.41335
0.0683991,6.40639
0.0683863,6.3987
0.068377,6.3907
0.0683659,6.38356
0.0683537,6.37831
0.0683382,6.37467
0.0683228,6.3723
0.068308,6.36968
0.068298,6.36612
0.0682934,6.36142
0.0682901,6.35611
0.0682828,6.35132
0.0682781,6.34802
0.068267,6.34641
0.0682597,6.34571
0.06825,6.34483
0.0682447,6.3432
0.0682455,6.34006
0.0682449,6.33618
0.0682465,6.3327
0.0682484,6.33039
0.0682438,6.32984
0.0682401,6.33018
0.0682387,6.33085
0.0682361,6.33071
0.0682394,6.32915
0.0682443,6.32683
0.0682495,6.32438
0.0682517,6.32332
0.0682513,6.32353
0.0682482,6.32495
0.0682446,6.32669
0.0682458,6.3275
0.0682496,6.32707
0.0682591,6.32533
0.0682682,6.32373
0.0682789,6.32281
0.0682835,6.32338
0.068288,6.32538
0.0682952,6.32749
0.0683028,6.32936
0.068314,6.32959
0.0683301,6.32887
0.0683474,6.32754
0.0683667,6.32667
0.0683797,6.32736
0.0683939,6.32894
0.0684088,6.33149
0.0684252,6.3334
0.0684435,6.33434
0.0684646,6.33395
0.06849,6.33295
0.068514,6.3326
0.068539,6.33315
0.0685577,6.33526
0.0685786,6.33782
0.0686023,6.34031
0.0686254,6.34179
0.0686579,6.34155
0.0686881,6.34099
0.0687189,6.34019
0.0687494,6.34081
0.0687781,6.34238
0.068805,6.34486
0.0688344,6.34742
0.0688668,6.34859
0.0689012,6.34876
0.0689417,6.34746
0.0689822,6.34621
0.0690213,6.34559
0.0690578,6.34622
0.0690948,6.34793
0.0691319,6.34958
0.069173,6.35086
0.0692116,6.35041
0.0692607,6.34921
0.0693048,6.34756
0.0693537,6.34647
0.0693997,6.34676
0.0694407,6.34796
0.0694834,6.34978
0.0695275,6.3509
0.069574,6.35089
0.0696262,6.34961
0.0696763,6.34786
0.0697311,6.3467
0.0697776,6.34665
0.0698272,6.34801
0.0698753,6.34996
0.0699216,6.3514
0.0699736,6.35161
0.0700284,6.35044
0.0700813,6.34868
0.0701369,6.34718
0.0701931,6.34676
0.0702432,6.34776
0.0702921,6.34938
0.0703443,6.35083
0.0703958,6.35123
0.0704559,6.35029
0.0705145,6.34869
0.0705729,6.34711
0.070629,6.34672
0.0706852,6.34762
0.0707394,6.34952
0.0707909,6.35134
0.07085,6.35226
0.0709086,6.352
0.0709692,6.35086
0.0710326,6.34971
0.0710886,6.34934
0.0711478,6.35026
0.0712014,6.35229
0.0712584,6.35422
0.0713168,6.35552
0.0713779,6.35539
0.0714413,6.3543
0.0715047,6.35312
0.0715676,6.35233
0.0716306,6.35281
0.0716885,6.35428
0.0717488,6.35601
0.0718108,6.35698
0.0718723,6.35669
0.0719391,6.35531
0.0720073,6.35332
0.072074,6.35198
0.0721384,6.35182
0.0721994,6.35311
0.0722588,6.35539
0.0723191,6.3571
0.072383,6.35849
0.0724469,6.35844
0.0725139,6.35847
0.0725747,6.35851
0.0726386,6.35983
0.0726973,6.3624
0.0727581,6.3653
0.0728186,6.36826
0.0728825,6.36952
0.0729483,6.37015
0.073017,6.36932
0.0730842,6.36903
0.0731534,6.36934
0.0732197,6.3711
0.0732836,6.37384
0.0733475,6.37651
0.0734123,6.37892
0.0734824,6.38012
0.0735496,6.38129
0.0736173,6.38234
0.0736846,6.38475
0.0737461,6.38869
0.0738076,6.39412
0.0738674,6.40013
0.0739251,6.40581
0.0739847,6.41066
0.0740482,6.41493
0.0741121,6.41908
0.0741741,6.42424
0.0742325,6.43102
0.0742875,6.43938
0.0743436,6.4486
0.0743998,6.45775
0.0744571,6.46642
0.0745155,6.47453
0.0745736,6.48284
0.0746301,6.49181
0.0746862,6.50249
0.0747362,6.51451
0.0747904,6.52745
0.0748421,6.54021
0.0748955,6.55205
0.0749513,6.56279
0.0750121,6.57256
0.07507,6.58226
0.0751325,6.59258
0.0751876,6.60369
0.075245,6.61504
0.0753003,6.62596
0.0753619,6.63548
0.0754262,6.64348
0.0754901,6.65032
0.0755574,6.65709
0.0756198,6.66475
0.0756818,6.67372
0.0757393,6.68386
0.0757989,6.69417
0.0758566,6.704
0.075919,6.71297
0.0759798,6.72127
0.0760461,6.72988
0.0761045,6.7394
0.0761625,6.75044
0.0762211,6.76265
0.0762783,6.77541
0.076336,6.78804
0.0763956,6.79976
0.0764564,6.81093
0.0765172,6.82198
0.0765759,6.83418
0.0766345,6.84773
0.0766896,6.86293
0.0767399,6.87905
0.0767928,6.89528
0.0768429,6.91139
0.0768968,6.92726
0.0769492,6.94362
0.0769991,6.96144
0.0770446,6.98122
0.0770856,7.00307
0.0771264,7.02638
0.0771655,7.05055
0.0772053,7.07436
0.0772487,7.09792
0.0772897,7.12123
0.0773319,7.14528
0.0773712,7.17067
0.0774082,7.19728
0.0774456,7.22499
0.0774831,7.2527
0.0775212,7.28005
0.0775646,7.30641
0.0776056,7.33241
0.0776457,7.3589
0.0776864,7.38637
0.0777212,7.4153
0.0777572,7.44509
0.0777918,7.47548
0.0778273,7.50551
0.0778617,7.53469
0.0779001,7.56337
0.0779384,7.59194
0.0779775,7.6216
0.0780147,7.65224
0.0780462,7.68422
0.0780801,7.7162
0.0781175,7.74819
0.0781568,7.77907
0.0781976,7.80934
0.0782386,7.83949
0.078278,7.8705
0.0783178,7.90248
0.0783583,7.93569
0.0783914,7.96962
0.0784277,8.00331
0.0784653,8.03652
0.0785042,8.06899
0.0785438,8.10121
0.0785848,8.13393
0.0786208,8.16811
0.0786599,8.20326
0.0786976,8.23891
0.0787317,8.27529
0.0787698,8.31093
0.078812,8.34609
0.0788513,8.381
0.0788955,8.41664
0.0789343,8.45326
0.0789737,8.49111
0.0790116,8.52968
0.0790488,8.5685
0.0790871,8.60683
0.0791267,8.64443
0.079168,8.68154
0.0792083,8.71889
0.0792469,8.75698
0.0792862,8.79628
0.0793232,8.83657
0.0793594,8.87709
0.0793957,8.91786
0.0794364,8.95766
0.0794751,8.99745
0.0795196,9.03676
0.0795595,9.07729
0.0796,9.11855
0.079636,9.16078
0.0796737,9.20351
0.0797147,9.24599
0.0797542,9.28798
0.0797952,9.329
0.0798365,9.37001
0.0798768,9.41152
0.0799176,9.45424
0.0799564,9.49794
0.0799941,9.54189
0.0800344,9.58608
0.0800761,9.62978
0.0801185,9.67299
0.0801643,9.71596
0.0802089,9.75966
0.0802516,9.80434
0.0802952,9.84975
0.0803372,9.89589
0.0803768,9.94179
0.080417,9.98744
0.0804621,10.0324
0.0805048,10.0768
0.0805498,10.1215
0.0805935,10.1669
0.0806347,10.2135
0.0806745,10.2609
0.080716,10.3085
0.0807585,10.3561
0.0808016,10.403
0.0808455,10.4498
0.0808917,10.4967
0.0809335,10.5443
0.0809761,10.5929
0.0810143,10.6425
0.0810517,10.6923
0.0810925,10.7418
0.0811342,10.7909
0.0811766,10.8395
0.0812215,10.8886
0.081262,10.9384
0.081309,10.9889
0.0813512,11.0407
0.0813919,11.0929
0.081436,11.1449
0.0814813,11.1967
0.0815302,11.2479
0.0815734,11.299
0.0816184,11.3505
0.0816563,11.403
0.0816976,11.4562
0.0817379,11.5101
0.0817777,11.5643
0.0818178,11.6183
0.0818611,11.6723
0.0819038,11.7265
0.0819453,11.7811
0.0819877,11.8368
0.082028,11.8934
0.0820664,11.9511
0.0821041,12.0089
0.0821394,12.0665
0.0821778,12.1242
0.0822195,12.1815
0.0822626,12.2396
0.0823013,12.2985
0.0823399,12.3585
0.0823795,12.4198
0.0824181,12.4813
0.0824593,12.5431
0.0825011,12.6044
0.0825425,12.6662
0.0825831,12.7282
0.0826191,12.7907
0.0826565,12.8546
0.082692,12.9186
0.0827268,12.9835
0.0827619,13.0485
0.0828,13.1129
0.0828387,13.1774
0.082877,13.2418
0.0829176,13.3063
0.0829567,13.3717
0.0829943,13.4381
0.0830284,13.5045
0.0830649,13.5714
0.0831021,13.6378
0.0831424,13.7038
0.0831827,13.7702
0.0832244,13.8375
0.0832645,13.9049
0.0833057,13.9738
0.083346,14.0426
0.0833889,14.112
0.0834264,14.1808
0.0834678,14.2497
0.0835067,14.318
0.0835451,14.3864
0.0835828,14.4552
0.083619,14.525
0.0836576,14.5949
0.0836934,14.6647
0.0837358,14.734
0.083779,14.8034
0.0838193,14.8722
0.0838591,14.9415
0.0838977,15.0114
0.0839344,15.0822
0.0839697,15.1535
0.0840098,15.2252
0.0840463,15.2975
0.0840854,15.3703
0.0841276,15.4425
0.0841664,15.5148
0.0842074,15.5875
0.0842501,15.6613
0.0842803,15.735
0.0843158,15.8092
0.0843518,15.883
0.0843859,15.9562
0.0844238,16.0294
0.0844622,16.1017
0.0845029,16.1749
0.0845397,16.2487
0.0845807,16.3224
0.0846181,16.3971
0.0846529,16.4718
0.0846908,16.546
0.0847325,16.6198
0.0847709,16.694
0.0848117,16.7682
0.084851,16.8434
0.0848949,16.9186
0.0849381,16.9948
0.0849807,17.0709
0.085027,17.1471
0.0850678,17.2228
0.0851123,17.298
0.0851538,17.3732
0.0852003,17.4489
0.0852428,17.5255
0.0852845,17.6022
0.0853317,17.6789
0.0853763,17.7555
0.0854282,17.8317
0.0854771,17.9079
0.085526,17.984
0.0855734,18.0607
0.0856226,18.1378
0.0856707,18.2155
0.0857186,18.2936
0.0857701,18.3712
0.085825,18.4484
0.0858781,18.5255
0.0859373,18.6022
0.08599,18.6789
0.0860422,18.7565
0.0860937,18.8341
0.0861454,18.9113
0.0861976,18.9884
0.086251,19.0656
0.0863118,19.1413
0.0863705,19.2169
0.0864315,19.2926
0.0864859,19.3688
0.0865424,19.4455
0.0865953,19.5221
0.0866506,19.5993
0.086709,19.6764
0.0867705,19.7531
0.0868363,19.8297
0.0868979,19.9069
0.0869613,19.984
0.0870242,20.0617
0.0870833,20.1398
0.0871394,20.2184
0.0871983,20.2965
0.087255,20.3742
0.0873153,20.4518
0.0873756,20.5294
0.0874376,20.6076
0.0874984,20.6862
0.087558,20.7658
0.0876136,20.8454
0.0876718,20.9254
0.0877299,21.0055
0.0877943,21.0851
0.0878568,21.1647
0.087924,21.2443
0.0879903,21.3244
0.0880566,21.4049
0.0881195,21.4855
0.0881829,21.5656
0.0882502,21.6452
0.088316,21.7243
0.0883832,21.8029
0.0884504,21.8815
0.0885234,21.9596
0.088593,22.0382
0.0886631,22.1168
0.0887332,22.1955
0.0888009,22.2736
0.0888786,22.3512
0.088954,22.4284
0.0890341,22.505
0.0891152,22.5807
0.0891996,22.6564
0.089282,22.7316
0.0893602,22.8063
0.0894418,22.879
0.0895276,22.9498
0.0896144,23.0192
0.089704,23.0866
0.0898004,23.1525
0.0898986,23.2174
0.0899959,23.2809
0.090096,23.3439
0.0901961,23.4049
0.0902991,23.4647
0.0904079,23.5231
0.0905156,23.5805
0.090632,23.6366
0.0907474,23.6918
0.0908647,23.746
0.0909867,23.799
0.0911069,23.8507
0.0912266,23.901
0.0913496,23.9496
0.0914736,23.9965
0.0916004,24.0419
0.0917311,24.0856
0.0918636,24.1278
0.0920038,24.1686
0.0921421,24.2069
0.0922871,24.2421
0.0924387,24.2731
0.0925989,24.2991
0.0927715,24.3198
0.0929527,24.3361
0.0931435,24.3481
0.0933466,24.3553
0.0935602,24.3574
0.0937834,24.3549
0.0940075,24.3478
0.0942373,24.338
0.0944653,24.3275
0.0946903,24.3183
0.0949068,24.3119
0.0951147,24.3086
0.095314,24.3088
0.0955057,24.3134
0.095685,24.322
0.0958538,24.3347
0.0960102,24.3518
0.0961561,24.3724
0.0962982,24.3951
0.0964365,24.4197
0.0965719,24.4454
0.0967064,24.4718
0.0968409,24.4979
0.0969763,24.5239
0.0971108,24.5499
0.0972481,24.5763
0.0973787,24.603
0.0975065,24.6312
0.0976296,24.6604
0.0977516,24.6897
0.0978727,24.7185
0.0979948,24.7463
0.0981226,24.7731
0.0982466,24.7988
0.0983772,24.824
0.0985069,24.8484
0.0986385,24.8722
0.0987654,24.895
0.098896,24.9174
0.0990257,24.9391
0.0991573,24.9609
0.0992851,24.9834
0.0994101,25.0073
0.099534,25.0334
0.0996499,25.0616
0.0997653,25.0916
0.0998778,25.1228
0.0999851,25.1553
0.100089,25.1892
0.100187,25.2246
0.100282,25.2617
0.100373,25.3005
0.100461,25.3411
0.100544,25.3823
0.100629,25.4241
0.100713,25.4663
0.100796,25.5088
0.100883,25.5513
0.100966,25.5942
0.10105,25.6375
0.101129,25.6807
0.10121,25.7244
0.101292,25.7676
0.101375,25.8105
0.101461,25.853
0.101547,25.8958
0.101632,25.939
0.101716,25.9827
0.101801,26.0269
0.101886,26.0715
0.101974,26.1162
0.102056,26.1609
0.102138,26.2053
0.102217,26.2502
0.102298,26.2952
0.10238,26.3411
0.102456,26.3875
0.102533,26.4346
0.102609,26.4819
0.102688,26.5295
0.102766,26.5772
0.102844,26.6252
0.102914,26.6741
0.102987,26.7234
0.103058,26.7732
0.103129,26.8232
0.103203,26.873
0.103278,26.9224
0.103351,26.9714
0.10343,27.02
0.103509,27.0688
0.103588,27.1179
0.103669,27.1672
0.103747,27.2166
0.103819,27.2661
0.103896,27.3159
0.103967,27.366
0.104037,27.4163
0.104105,27.4675
0.104172,27.5195
0.10424,27.5723
0.104304,27.6255
0.104374,27.6787
0.104438,27.7319
0.104506,27.7852
0.104573,27.8379
0.104639,27.8909
0.104703,27.9436
0.104768,27.9966
0.104836,28.0498
0.104899,28.1033
0.104965,28.157
0.105031,28.2109
0.105099,28.2649
0.105164,28.3191
0.105232,28.3735
0.105298,28.4285
0.105358,28.4839
0.105417,28.5396
0.105479,28.595
0.10554,28.6501
0.105601,28.7048
0.105663,28.7594
0.105728,28.8131
0.105794,28.8668
0.105861,28.92
0.105929,28.973
0.106001,29.0252
0.106069,29.0765
0.106142,29.1268
0.106214,29.1764
0.106291,29.2249
0.106371,29.2733
0.106453,29.3207
0.106534,29.3673
0.106623,29.4124
0.10672,29.4557
0.106816,29.4964
0.106916,29.5352
0.10702,29.5716
0.107128,29.6065
0.107237,29.6397
0.107351,29.6717
0.107465,29.7022
0.107583,29.7309
0.107709,29.7571
0.107841,29.7799
0.107982,29.7973
0.108149,29.8039
0.108346,29.7947
0.108568,29.7716
0.108811,29.7374
0.109076,29.6935
0.109359,29.64
0.109666,29.5761
0.109994,29.4999
0.110343,29.413
0.110701,29.3192
0.111054,29.2284
0.111384,29.1459
0.111691,29.0721
0.111985,29.0043
0.112262,28.9408
0.112527,28.8832
0.112768,28.8339
0.112984,28.7955
0.113174,28.7684
0.113339,28.7518
0.113492,28.7425
0.113624,28.7389
0.113754,28.7394
0.113874,28.7434
0.113983,28.7509
0.11409,28.7612
0.114189,28.7738
0.114283,28.7885
0.114375,28.8048
0.114459,28.8219
0.114548,28.8387
0.114636,28.8556
0.114723,28.8723
0.114811,28.8888
0.114899,28.905
0.114989,28.9209
0.115083,28.9356
0.115182,28.9483
0.115286,28.9586
0.115397,28.9667
0.11551,28.9723
0.115628,28.9755
0.115755,28.976
0.115884,28.974
0.116017,28.9693
0.116153,28.962
0.116295,28.9525
0.116439,28.9406
0.116586,28.9273
0.116736,28.9137
0.116878,28.9011
0.117017,28.8903
0.117151,28.8815
0.117281,28.8749
0.117406,28.8706
0.117525,28.8681
0.117641,28.8683
0.117747,28.8717
0.117847,28.8783
0.117942,28.8873
0.118032,28.8984
0.118119,28.9108
0.118199,28.9245
0.118279,28.939
0.11836,28.9545
0.118437,28.971
0.11851,28.9886
0.118585,29.0074
0.118654,29.0272
0.118726,29.0477
0.118795,29.0689
0.118866,29.0908
0.118933,29.1131
0.119002,29.1362
0.119068,29.1601
0.119133,29.185
0.119199,29.2107
0.119261,29.2368
0.119324,29.2636
0.119385,29.2906
0.119445,29.3181
0.119503,29.3458
0.119561,29.3741
0.119618,29.4029
0.119676,29.4321
0.119731,29.4616
0.119786,29.4913
0.119841,29.5211
0.119898,29.5509
0.119955,29.5809
0.120012,29.611
0.120072,29.6413
0.120128,29.6716
0.120187,29.7019
0.120244,29.7318
0.120306,29.7612
0.120368,29.7901
0.120425,29.8186
0.12049,29.8464
0.120555,29.8737
0.120624,29.9011
0.120689,29.9284
0.120757,29.9558
0.120822,29.9832
0.12089,30.0109
0.12096,30.0389
0.121026,30.0675
0.121093,30.0968
0.121158,30.1273
0.121221,30.1585
0.121283,30.1905
0.121341,30.2227
0.121399,30.255
0.12146,30.2874
0.121515,30.3199
0.121571,30.3529
0.121628,30.3858
0.121684,30.4193
0.121742,30.4527
0.121798,30.4862
0.121855,30.5191
0.121915,30.5518
0.121975,30.5846
0.122035,30.6173
0.122095,30.6502
0.122154,30.6834
0.122213,30.7164
0.122273,30.7493
0.122336,30.7823
0.122393,30.815
0.122453,30.848
0.122515,30.8812
0.122573,30.9149
0.122633,30.9488
0.122693,30.9832
0.122752,31.0181
0.12281,31.0528
0.122871,31.0882
0.122931,31.1236
0.122993,31.1595
0.123049,31.1959
0.123105,31.2332
0.123161,31.2706
0.123217,31.3087
0.123268,31.3468
0.123322,31.3851
0.123373,31.4237
0.123424,31.4622
0.123477,31.5013
0.123529,31.5406
0.123581,31.5804
0.123629,31.6204
0.123682,31.6605
0.123733,31.7005
0.123785,31.7403
0.123842,31.7801
0.123896,31.8199
0.12395,31.8597
0.124,31.9
0.124051,31.9403
0.124105,31.9801
0.12416,32.0196
0.124212,32.0587
0.124272,32.0975
0.12433,32.1363
0.124392,32.1756
0.124453,32.2147
0.124514,32.254
0.124579,32.2926
0.124643,32.3309
0.12471,32.3685
0.124774,32.4061
0.124843,32.4434
0.124905,32.481
0.124969,32.5184
0.125034,32.556
0.125099,32.5933
0.125167,32.6305
0.125236,32.6678
0.125303,32.7054
0.125369,32.7435
0.125434,32.7823
0.125501,32.8216
0.125564,32.8614
0.125629,32.9014
0.125691,32.942
0.125752,32.9827
0.125809,33.0238
0.125869,33.0653
0.125929,33.1075
0.125986,33.1505
0.126044,33.1942
0.1261,33.2384
0.126156,33.283
0.126214,33.3277
0.126276,33.3726
0.126334,33.4176
0.126395,33.4625
0.126453,33.5072
0.126512,33.5516
0.126572,33.5958
0.126629,33.6397
0.12669,33.6832
0.12675,33.7259
0.126816,33.7686
0.126875,33.8116
0.12694,33.8548
0.127003,33.8983
0.127067,33.942
0.127127,33.9859
0.127191,34.0296
0.127255,34.0731
0.127319,34.1165
0.127383,34.1597
0.127444,34.2032
0.127507,34.2472
0.12757,34.2913
0.127632,34.3358
0.127697,34.3802
0.127761,34.4251
0.127827,34.4703
0.127893,34.5159
0.127957,34.5623
0.128023,34.6087
0.128087,34.6551
0.128152,34.7013
0.128214,34.7467
0.128281,34.7913
0.12835,34.8353
0.128419,34.878
0.128492,34.92
0.128566,34.9615
0.128641,35.0023
0.128718,35.0426
0.128798,35.0821
0.128881,35.1209
0.128964,35.1593
0.129046,35.1973
0.129129,35.2354
0.129209,35.274
0.129289,35.3126
0.129369,35.3514
0.129454,35.39
0.129537,35.4285
0.129624,35.4669
0.12971,35.505
0.1298,35.543
0.129886,35.5816
0.129972,35.62
0.130058,35.6583
0.130142,35.6964
0.13023,35.734
0.130316,35.7713
0.130402,35.8082
0.130489,35.8451
0.130575,35.8822
0.130661,35.919
0.130748,35.9556
0.130838,35.992
0.13093,36.0277
0.13102,36.0628
0.131111,36.0975
0.131203,36.1317
0.131299,36.1656
0.131391,36.1993
0.131482,36.2327
0.131581,36.2664
0.131675,36.2994
0.131777,36.3316
0.131876,36.3626
0.131983,36.3923
0.132095,36.4196
0.132212,36.4445
0.132332,36.4666
0.132457,36.4851
0.132587,36.4992
0.132724,36.5084
0.132874,36.5135
0.133025,36.515
0.133183,36.5142
0.133344,36.5122
0.133506,36.5101
0.133666,36.5087
0.13382,36.5084
0.133969,36.5096
0.134114,36.5128
0.13425,36.5184
0.134383,36.526
0.134509,36.5352
0.134632,36.5459
0.134753,36.5577
0.134872,36.5705
0.13499,36.5836
0.135109,36.5966
0.135226,36.6099
0.135343,36.6236
0.135456,36.6381
0.135569,36.6536
0.135678,36.6701
0.135785,36.6869
0.135889,36.704
0.135994,36.7208
0.136095,36.7378
0.136199,36.7549
0.136299,36.7727
0.1364,36.7913
0.136493,36.8108
0.136588,36.8311
0.136684,36.8519
0.136774,36.8732
0.136867,36.8954
0.136956,36.9186
0.13704,36.9428
0.137124,36.968
0.137203,36.9941
0.137285,37.0208
0.13736,37.0477
0.13744,37.0751
0.137516,37.1028
0.137594,37.1309
0.137672,37.1594
0.137751,37.1886
0.137826,37.2184
0.137901,37.2484
0.137974,37.2787
0.138055,37.3087
0.138132,37.3386
0.13821,37.3688
0.138286,37.3992
0.138359,37.4297
0.138433,37.4603
0.138509,37.491
0.138581,37.5219
0.138654,37.5527
0.138726,37.5839
0.138798,37.6151
0.138871,37.6469
0.138944,37.6791
0.139016,37.7118
0.139087,37.7448
0.139158,37.7785
0.13923,37.8121
0.139296,37.8461
0.139368,37.88
0.139434,37.9142
0.139502,37.9489
0.139567,37.9835
0.139631,38.0184
0.1397,38.0538
0.139769,38.0892
0.139835,38.1249
0.139907,38.1605
0.139975,38.1964
0.140043,38.2323
0.140113,38.2684
0.140181,38.3043
0.140254,38.3397
0.140325,38.3737
0.140403,38.4066
0.14048,38.4379
0.140562,38.4674
0.140649,38.4941
0.140744,38.5166
0.140856,38.5319
0.140993,38.5341
0.141186,38.5109
0.14144,38.4567
0.141741,38.382
0.142077,38.2883
0.142453,38.1769
0.142844,38.0559
0.143244,37.9289
0.143649,37.799
0.144046,37.6691
0.144423,37.5456
0.144759,37.4411
0.145032,37.361
0.145276,37.2951
0.14549,37.2426
0.145683,37.1997
0.145879,37.1545
0.1461,37.0956
0.14638,37.0092
0.146743,36.8823
0.147284,36.6674
0.148005,36.3647
0.148772,36.0405
0.149554,35.7084
0.150336,35.3725
0.151122,35.0346
0.151889,34.6987
0.152617,34.3784
0.153269,34.0834
0.153826,33.8295
0.154191,33.6596
0.154362,33.581
0.154488,33.5231
0.154592,33.4743
0.154683,33.4318
0.154764,33.3942
0.154834,33.3605
0.154899,33.3304
0.154958,33.3032
0.155009,33.2784
0.155056,33.2557
0.1551,33.2346
0.155142,33.2145
0.155184,33.1956
0.155221,33.1776
0.15526,33.1602
0.155296,33.1441
0.155331,33.1288
0.155363,33.1146
0.155394,33.101
0.155426,33.0881
0.155458,33.0758
0.155488,33.064
0.155517,33.0527
0.155546,33.0419
0.155578,33.0316
0.155604,33.022
0.155632,33.0129
0.155662,33.0042
0.155691,32.9957
0.155719,32.9875
0.155747,32.9796
0.155774,32.9721
0.155804,32.965
0.155832,32.9585
0.155859,32.9525
0.155888,32.9469
0.155916,32.9416
0.155944,32.9365
0.155971,32.932
0.156,32.9279
0.156027,32.9245
0.15605,32.9217
0.156078,32.9197
0.156101,32.9181
0.156127,32.917
0.156151,32.9164
0.156177,32.9164
0.1562,32.9169
0.156223,32.9181
0.156246,32.9199
0.15627,32.9222
0.15629,32.9253
0.156312,32.9288
0.15633,32.9327
0.156353,32.937
0.156375,32.9418
0.156396,32.9471
0.156416,32.953
0.156437,32.9594
0.156458,32.9664
0.156477,32.9738
0.156499,32.9814
0.156521,32.9891
0.156542,32.9973
0.156562,33.0059
0.156584,33.0149
0.156605,33.0245
0.156625,33.0346
0.156647,33.0448
0.156669,33.0552
0.15669,33.0661
0.156714,33.077
0.156734,33.0883
0.156759,33.1
0.156784,33.1121
0.156804,33.1245
0.156828,33.137
0.156848,33.1496
0.156872,33.1623
0.156898,33.1749
0.156924,33.1877
0.156949,33.2006
0.156974,33.2138
0.156999,33.2271
0.157026,33.2407
0.157053,33.2542
0.15708,33.2679
0.15711,33.2815
0.15714,33.2953
0.157169,33.3094
0.1572,33.3238
0.15723,33.3386
0.15726,33.3536
0.157292,33.3689
0.157322,33.3841
0.157357,33.3995
0.157386,33.4151
0.157419,33.4311
0.157452,33.4473
0.157485,33.464
0.157519,33.481
0.157554,33.4981
0.157588,33.5153
0.157621,33.5326
0.157655,33.5503
0.15769,33.5683
0.157728,33.5865
0.157762,33.6053
0.157795,33.6243
0.157828,33.6437
0.157863,33.6633
0.157898,33.683
0.157931,33.7031
0.157968,33.7236
0.158,33.7444
0.158032,33.7657
0.158065,33.7874
0.158098,33.8094
0.15813,33.8316
0.158162,33.8541
0.158196,33.8769
0.15823,33.9
0.158263,33.9234
0.158295,33.9472
0.158329,33.9715
0.158362,33.996
0.158396,34.0207
0.158428,34.0457
0.158463,34.0707
0.158498,34.0961
0.158532,34.1218
0.158566,34.1476
0.158602,34.1739
0.158637,34.2005
0.158668,34.2272
0.158706,34.2542
0.15874,34.2813
0.158773,34.3085
0.158806,34.3362
0.158841,34.3642
0.158875,34.3927
0.158911,34.4218
0.158943,34.4511
0.158981,34.4805
0.159016,34.5099
0.159054,34.5394
0.159094,34.569
0.159131,34.5988
0.159174,34.6288
0.159213,34.659
0.159252,34.6893
0.159295,34.719
0.159338,34.7488
0.159379,34.7782
0.159422,34.8079
0.159468,34.8378
0.159507,34.8681
0.159548,34.8986
0.159589,34.9292
0.159627,34.96
0.159671,34.9908
0.159709,35.0218
0.159749,35.053
0.159791,35.0845
0.159832,35.1165
0.159873,35.1485
0.159917,35.1807
0.159958,35.2129
0.160002,35.2452
0.160046,35.2771
0.160093,35.3089
0.160138,35.3409
0.160185,35.3729
0.160231,35.4051
0.160275,35.4375
0.160317,35.4703
0.160363,35.503
0.160408,35.5359
0.160449,35.5694
0.160495,35.6033
0.16054,35.6377
0.160584,35.6729
0.160626,35.7088
0.160664,35.7449
0.160708,35.7815
0.160751,35.8182
0.160794,35.855
0.160839,35.8921
0.160881,35.9295
0.160925,35.9671
0.16097,36.0044
0.161011,36.042
0.161053,36.0796
0.161094,36.1167
0.161137,36.1539
0.161185,36.191
0.161227,36.2283
0.161269,36.2657
0.161313,36.3033
0.161357,36.3406
0.161405,36.3782
0.161452,36.4156
0.1615,36.4529
0.161549,36.4898
0.1616,36.5267
0.161649,36.5635
0.161701,36.5999
0.161751,36.6363
0.161802,36.6719
0.161858,36.7071
0.161912,36.7413
0.161968,36.7747
0.162031,36.8074
0.162095,36.8392
0.162161,36.8704
0.162229,36.9009
0.1623,36.9299
0.162377,36.9573
0.162457,36.983
0.162544,37.0073
0.162628,37.0297
0.162719,37.0506
0.162813,37.0699
0.162906,37.0876
0.163004,37.1038
0.163107,37.1185
0.16321,37.1317
0.163317,37.1431
0.16343,37.152
0.163548,37.158
0.163672,37.161
0.163804,37.161
0.16394,37.1581
0.164087,37.1519
0.164239,37.1418
0.164398,37.1281
0.164563,37.11
0.164738,37.0872
0.164918,37.061
0.165104,37.0313
0.165294,36.9985
0.165492,36.9622
0.165697,36.9216
0.165907,36.8797
0.166108,36.8386
0.166308,36.7996
0.166497,36.7642
0.166679,36.7339
0.166844,36.7086
0.166999,36.6891
0.167136,36.6758
0.16726,36.6693
0.167366,36.6701
0.167461,36.6765
0.167544,36.6867
0.167621,36.6997
0.167697,36.7152
0.167764,36.7323
0.167829,36.7512
0.167894,36.7718
0.167953,36.7939
0.168009,36.8175
0.168062,36.8425
0.168114,36.8687
0.168165,36.8961
0.168212,36.9244
0.168259,36.9536
0.168302,36.9832
0.16835,37.0135
0.168396,37.0443
0.168442,37.0755
0.168487,37.107
0.168529,37.1388
0.168573,37.1707
0.168615,37.2027
0.168662,37.2345
0.168706,37.2665
0.16875,37.2987
0.168793,37.3314
0.168836,37.3651
0.168879,37.3993
0.168923,37.4339
0.168967,37.4693
0.169009,37.505
0.169053,37.5414
0.169095,37.5785
0.169136,37.6161
0.169176,37.6544
0.169218,37.693
0.169259,37.732
0.169298,37.7713
0.169335,37.8109
0.169375,37.8504
0.169414,37.8907
0.169452,37.931
0.169486,37.972
0.169526,38.0133
0.169561,38.055
0.169599,38.0973
0.169636,38.1397
0.169672,38.1825
0.169711,38.2257
0.169751,38.2694
0.169791,38.3133
0.169824,38.3578
0.169862,38.4024
0.169899,38.4476
0.169933,38.4933
0.169967,38.5389
0.170002,38.5848
0.17004,38.6312
0.170073,38.6781
0.170109,38.7257
0.170145,38.7738
0.170181,38.8226
0.170216,38.8717
0.170253,38.9212
0.170295,38.971
0.170331,39.0211
0.170369,39.0716
0.170403,39.1224
0.170443,39.1732
0.170477,39.224
0.170515,39.2748
0.170553,39.325
0.170592,39.3751
0.170633,39.4251
0.170672,39.4752
0.170714,39.525
0.17076,39.5746
0.170806,39.6227
0.170861,39.6688
0.170922,39.7125
0.170987,39.7528
0.171059,39.7896
0.171141,39.8228
0.171231,39.851
0.171334,39.8729
0.171459,39.887
0.171599,39.8925
0.171759,39.888
0.171947,39.8715
0.172158,39.8444
0.172386,39.8085
0.172632,39.7641
0.172884,39.714
0.173145,39.661
0.1734,39.6076
0.17365,39.5558
0.173889,39.5067
0.174113,39.4628
0.174317,39.4276
0.1745,39.4009
0.174664,39.3822
0.174807,39.3718
0.174939,39.3673
0.17506,39.3674
0.175175,39.371
0.175281,39.3777
0.17538,39.3874
0.175473,39.3996
0.175563,39.4139
0.175647,39.4295
0.175732,39.4459
0.175817,39.4625
0.175898,39.4796
0.175975,39.4969
0.176056,39.5141
0.17614,39.5311
0.176221,39.5481
0.176305,39.565
0.176386,39.582
0.17647,39.5987
0.176552,39.6156
0.176636,39.6323
0.176725,39.6485
0.176811,39.6646
0.176897,39.6808
0.176981,39.6974
0.177063,39.7143
0.177146,39.7319
0.177224,39.7498
0.177302,39.7684
0.177379,39.7873
0.177452,39.8069
0.177526,39.8276
0.177597,39.8493
0.177666,39.8722
0.17773,39.8961
0.177795,39.9209
0.177858,39.9465
0.177922,39.973
0.177982,40.0005
0.178042,40.029
0.1781,40.0586
0.178153,40.089
0.178208,40.12
0.178259,40.1512
0.178313,40.1829
0.178363,40.2149
0.178416,40.2469
0.178465,40.2791
0.17852,40.3119
0.178571,40.3448
0.178624,40.3778
0.178675,40.411
0.178731,40.4442
0.178788,40.4771
0.178844,40.5103
0.178903,40.5435
0.178959,40.5767
0.179018,40.6102
0.179074,40.6436
0.179132,40.6771
0.179184,40.7108
0.179242,40.7445
0.179297,40.7784
0.179354,40.8128
0.179407,40.8477
0.179461,40.8831
0.179514,40.9195
0.179565,40.9564
0.179616,40.9937
0.179668,41.0316
0.179717,41.0699
0.179767,41.109
0.179815,41.1485
0.179866,41.1888
0.179912,41.2296
0.179958,41.2708
0.18,41.3119
0.180046,41.3534
0.180093,41.3949
0.180137,41.4369
0.180183,41.4791
0.180235,41.5216
0.180279,41.5645
0.180327,41.6078
0.180376,41.651
0.180424,41.6944
0.180476,41.7376
0.180527,41.7806
0.180577,41.8236
0.180628,41.8663
0.180683,41.9085
0.180737,41.95
0.180792,41.9908
0.180849,42.0306
0.180908,42.0694
0.18097,42.107
0.181039,42.1439
0.181104,42.18
0.181173,42.2149
0.181245,42.2489
0.181319,42.2821
0.181398,42.3141
0.181477,42.3452
0.181557,42.3753
0.181638,42.4046
0.181721,42.4332
0.181803,42.4611
0.181889,42.4885
0.181972,42.5157
0.182062,42.5427
0.182149,42.5692
0.182239,42.5959
0.182329,42.6225
0.182418,42.6497
0.182506,42.6777
0.182595,42.7063
0.18268,42.7354
0.182763,42.7652
0.182844,42.7953
0.182923,42.8256
0.183002,42.8564
0.18308,42.8874
0.183157,42.9187
0.183235,42.9499
0.183313,42.981
0.183392,43.0118
0.183472,43.042
0.183556,43.0715
0.183643,43.1009
0.183729,43.1298
0.183813,43.1594
0.183894,43.1893
0.183976,43.2197
0.184054,43.2507
0.184134,43.2824
0.184207,43.3154
0.184285,43.3496
0.184356,43.3855
0.184428,43.4226
0.184493,43.4611
0.184562,43.5007
0.184627,43.541
0.184694,43.5818
0.18476,43.6228
0.184822,43.6643
0.184884,43.7063
0.184945,43.7483
0.185005,43.7907
0.185064,43.8327
0.185131,43.8747
0.18519,43.9165
0.185255,43.958
0.185316,43.9997
0.185381,44.0417
0.185445,44.0837
0.185509,44.1257
0.185579,44.1677
0.185643,44.2099
0.185707,44.2522
0.185767,44.2944
0.185831,44.3366
0.185894,44.3791
0.185959,44.4223
0.186023,44.4658
0.186086,44.5097
0.18615,44.5544
0.186214,44.5993
0.186279,44.644
0.186349,44.6887
0.186414,44.7331
0.186477,44.778
0.186541,44.8232
0.186602,44.8681
0.186663,44.9133
0.186724,44.9582
0.186784,45.0034
0.186844,45.0488
0.186903,45.0949
0.186959,45.1421
0.187017,45.1897
0.187077,45.2382
0.187132,45.2871
0.187187,45.3366
0.18724,45.3867
0.18729,45.4372
0.187338,45.4882
0.187388,45.5398
0.187437,45.5918
0.187485,45.6447
0.187534,45.6982
0.187579,45.7524
0.187626,45.8069
0.187675,45.8618
0.187723,45.9172
0.187771,45.9726
0.187818,46.0283
0.187862,46.0842
0.187906,46.1401
0.18795,46.1963
0.187994,46.2522
0.188039,46.3078
0.188087,46.3635
0.188131,46.4189
0.188179,46.4748
0.188225,46.5307
0.188275,46.5869
0.188321,46.643
0.188371,46.6992
0.18842,46.7553
0.188466,46.8117
0.188515,46.8679
0.188561,46.9245
0.188608,46.9817
0.188655,47.039
0.188704,47.0969
0.18875,47.1548
0.188801,47.2129
0.188855,47.2712
0.188906,47.3293
0.188956,47.3879
0.189009,47.4465
0.189059,47.5051
0.189109,47.5637
0.18916,47.622
0.189212,47.6799
0.189265,47.7368
0.189328,47.792
0.189396,47.8436
0.189473,47.8902
0.189562,47.9317
0.189665,47.9674
0.189781,47.9973
0.189905,48.0213
0.190042,48.0395
0.19019,48.0523
0.190346,48.061
0.190508,48.0672
0.190669,48.0735
0.190826,48.0819
0.190978,48.0929
0.191123,48.1069
0.191259,48.1243
0.191391,48.1448
0.191506,48.1692
0.191616,48.1976
0.191712,48.2294
0.191805,48.2645
0.19189,48.3019
0.191975,48.3412
0.192053,48.3822
0.192131,48.4247
0.192205,48.4689
0.192275,48.515
0.192342,48.5624
0.192405,48.6105
0.192469,48.6598
0.192528,48.7101
0.192585,48.7611
0.192643,48.8131
0.192696,48.8661
0.192753,48.92
0.192808,48.975
0.192861,49.0309
0.192915,49.0873
0.192969,49.1444
0.193021,49.2018
0.193073,49.2596
0.193121,49.3177
0.193169,49.3761
0.193216,49.4347
0.193266,49.4935
0.193311,49.5528
0.193359,49.6127
0.193406,49.6727
0.193455,49.7333
0.193504,49.7938
0.193555,49.8548
0.193602,49.9164
0.193648,49.9784
0.193696,50.0406
0.193738,50.1031
0.193786,50.1656
0.193832,50.2291
0.193884,50.2926
0.193931,50.3566
0.193978,50.421
0.19403,50.486
0.194081,50.5509
0.194132,50.6158
0.19418,50.6813
0.194228,50.7467
0.194278,50.8121
0.194325,50.878
0.194374,50.9444
0.194422,51.0109
0.19447,51.0777
0.194522,51.1451
0.194571,51.2125
0.194623,51.2804
0.194671,51.3483
0.194718,51.4166
0.194763,51.485
0.194811,51.5533
0.194861,51.6212
0.194912,51.6896
0.194962,51.7579
0.195015,51.8263
0.195071,51.8946
0.195128,51.9625
0.195185,52.0304
0.195239,52.0983
0.195293,52.1666
0.195344,52.2345
0.195393,52.3024
0.195444,52.3697
0.195497,52.4371
0.195553,52.504
0.195609,52.5709
0.195668,52.6383
0.195723,52.7057
0.195775,52.7731
0.19583,52.8404
0.195885,52.9078
0.19594,52.9757
0.195992,53.0431
0.196049,53.111
0.196105,53.1793
0.196161,53.2477
0.196217,53.3165
0.196275,53.3854
0.196332,53.4547
0.196386,53.524
0.196436,53.5939
0.196486,53.6637
0.196535,53.734
0.196587,53.8043
0.196634,53.8756
0.196688,53.9464
0.196737,54.0182
0.196787,54.0895
0.196837,54.1608
0.196886,54.2325
0.196933,54.3038
0.196982,54.3756
0.197031,54.4474
0.197083,54.5196
0.197138,54.5909
0.197193,54.6622
0.197253,54.7335
0.19731,54.8038
0.197372,54.8736
0.197429,54.943
0.19749,55.0118
0.197552,55.0802
0.197619,55.1476
0.197684,55.214
0.197756,55.2794
0.19783,55.3429
0.197908,55.4051
0.19799,55.4652
0.19808,55.5228
0.198169,55.5782
0.198264,55.6302
0.198367,55.6791
0.198484,55.7237
0.198611,55.7633
0.198749,55.7977
0.198898,55.827
0.199055,55.852
0.199219,55.8736
0.199385,55.8934
0.199549,55.9125
0.199713,55.9314
0.199873,55.9509
0.20003,55.9723
0.200176,55.9966
0.200316,56.0249
0.200446,56.0574
0.200567,56.0942
0.200676,56.1348
0.200781,56.1777
0.200878,56.2224
0.200974,56.2685
0.201068,56.3159
0.201161,56.3638
0.201257,56.4114
0.201357,56.4582
0.201457,56.5044
0.201561,56.5495
0.201662,56.5945
0.201764,56.6394
0.201866,56.6843
0.201965,56.7292
0.202059,56.7746
0.202158,56.821
0.202252,56.8686
0.202342,56.9177
0.202432,56.968
0.202517,57.0195
0.202603,57.072
0.202685,57.1255
0.202765,57.1794
0.20284,57.2344
0.202915,57.2905
0.202989,57.3476
0.203066,57.406
0.203134,57.4658
0.203204,57.5273
0.203272,57.5898
0.203336,57.6543
0.203398,57.7197
0.203457,57.7866
0.203514,57.8545
0.20357,57.9233
0.203621,57.9927
0.203671,58.0625
0.203726,58.1328
0.203777,58.2036
0.20383,58.2749
0.203884,58.3467
0.203932,58.4194
0.203979,58.4922
0.204025,58.5654
0.204073,58.6391
0.204123,58.7129
0.204175,58.7876
0.204225,58.8628
0.204276,58.9385
0.204328,59.0141
0.204377,59.0903
0.204429,59.166
0.204479,59.2417
0.204525,59.3174
0.204573,59.3926
0.20462,59.4683
0.204667,59.5434
0.204716,59.6182
0.204768,59.6929
0.204821,59.7671
0.204874,59.8408
0.204924,59.915
0.204975,59.9888
0.205025,60.063
0.205078,60.1367
0.205131,60.2109
0.205185,60.2847
0.205246,60.3574
0.205304,60.4307
0.205366,60.5029
0.205425,60.5752
0.205482,60.6474
0.20554,60.7197
0.205598,60.791
0.205657,60.8623
0.205717,60.9331
0.205777,61.0034
0.205838,61.0742
0.205903,61.1445
0.205963,61.2153
0.206025,61.2866
0.206083,61.3584
0.206141,61.4297
0.206201,61.5019
0.206261,61.5737
0.206321,61.6465
0.206382,61.7187
0.206446,61.792
0.206509,61.8657
0.206572,61.939
0.206631,62.0132
0.206686,62.0874
0.206747,62.1621
0.206804,62.2368
0.20686,62.312
0.206918,62.3882
0.206972,62.4643
0.207029,62.541
0.207088,62.6177
0.207144,62.6943
0.207197,62.7715
0.207253,62.8481
0.207308,62.9253
0.207366,63.0029
0.207424,63.0801
0.207485,63.1572
0.207549,63.2344
0.20761,63.312
0.207667,63.3891
0.207724,63.4668
0.207781,63.5449
0.207837,63.623
0.207896,63.7012
0.207954,63.7798
0.208013,63.8584
0.208073,63.937
0.208131,64.0161
0.208188,64.0952
0.208245,64.1743
0.208298,64.2539
0.208356,64.334
0.208414,64.4141
0.20847,64.4946
0.208532,64.5757
0.208592,64.6567
0.208654,64.7373
0.208713,64.8184
0.208772,64.8994
0.20883,64.9809
0.208884,65.063
0.208939,65.1445
0.208996,65.2266
0.209054,65.3081
0.209117,65.3896
0.209177,65.4717
0.209235,65.5547
0.209291,65.6382
0.209346,65.7226
0.209403,65.8071
0.209463,65.8921
0.209525,65.977
0.209587,66.0625
0.209651,66.1479
0.209712,66.2339
0.209772,66.3198
0.20983,66.4058
0.20989,66.4917
0.209948,66.5771
0.210009,66.6626
0.210074,66.748
0.210135,66.8335
0.2102,66.9189
0.210261,67.0044
0.210321,67.0908
0.210382,67.1772
0.210444,67.2642
0.210508,67.3511
0.210576,67.4375
0.210641,67.5239
0.210712,67.6103
0.210775,67.6963
0.210838,67.7827
0.210898,67.8686
0.210957,67.9541
0.211023,68.0386
0.21109,68.123
0.211157,68.207
0.211224,68.291
0.211287,68.3755
0.211347,68.4609
0.211411,68.5459
0.211479,68.6299
0.21155,68.7119
0.211623,68.793
0.211702,68.873
0.211783,68.9517
0.211864,69.0288
0.211944,69.1055
0.212027,69.1807
0.212112,69.2544
0.212196,69.3276
0.21228,69.4009
0.212366,69.4746
0.212452,69.5478
0.212538,69.6216
0.212616,69.6958
0.212694,69.771
0.212774,69.8457
0.212858,69.9204
0.212939,69.9951
0.213027,70.0688
0.213118,70.1431
0.213205,70.2173
0.213289,70.292
0.213368,70.3672
0.213451,70.4424
0.213534,70.5176
0.213618,70.5923
0.213705,70.6665
0.213793,70.7407
0.21388,70.8135
0.213971,70.8848
0.21406,70.9541
0.214163,71.0195
0.214281,71.0776
0.214419,71.126
0.214593,71.157
0.214821,71.1649
0.21509,71.1511
0.215397,71.1183
0.215736,71.0693
0.216106,71.0048
0.216499,70.9277
0.216904,70.8422
0.217316,70.7538
0.217716,70.6664
0.218094,70.5893
0.218433,70.528
0.218731,70.4836
0.218994,70.4535
0.219224,70.4368
0.219426,70.4329
0.219606,70.4398
0.219765,70.4548
0.219915,70.4761
0.220054,70.5019
0.220181,70.5315
0.220303,70.5637
0.220423,70.5972
0.220539,70.6311
0.220655,70.6636
0.220777,70.6932
0.22091,70.7186
0.221054,70.7377
0.221216,70.7491
0.221393,70.7521
0.221588,70.7465
0.221799,70.7329
0.222024,70.7125
0.222259,70.6861
0.222499,70.6559
0.222742,70.6241
0.222981,70.5931
0.223212,70.5657
0.223431,70.5442
0.223631,70.53
0.223812,70.5239
0.223978,70.5254
0.224129,70.5339
0.224263,70.5493
0.224384,70.5709
0.224489,70.5977
0.224584,70.6284
0.224673,70.6626
0.224756,70.7002
0.224831,70.7398
0.224902,70.7813
0.224972,70.8245
0.225042,70.8692
0.225106,70.9156
0.225171,70.9629
0.225229,71.0117
0.225286,71.0618
0.225341,71.1126
0.22539,71.1643
0.225444,71.2168
0.225494,71.2703
0.225547,71.3247
0.225597,71.3801
0.22564,71.4365
0.225691,71.4934
0.225741,71.551
0.225789,71.6089
0.22584,71.667
0.225886,71.7251
0.225933,71.7837
0.225977,71.8423
0.226021,71.9009
0.226063,71.9595
0.226108,72.0178
0.226152,72.0764
0.226196,72.135
0.226244,72.1936
0.226293,72.2525
0.226337,72.3113
0.226387,72.3704
0.226433,72.4292
0.226477,72.4881
0.226525,72.5464
0.226573,72.6048
0.226621,72.6626
0.226671,72.72
0.228945,71.7044
0.232393,70.1262
0.235842,68.5403
0.23929,66.9622
0.242739,65.3762
0.246218,63.7825
0.249697,62.1887
0.253099,60.5794
0.256441,58.9622
0.259691,57.3372
0.260645,56.7864
0.260411,56.7823
0.260187,56.7714
0.259973,56.754
0.259759,56.7341
0.259549,56.7146
0.259333,56.6972
0.259117,56.6818
0.258902,56.668
0.258679,56.6561
0.258456,56.6457
0.258228,56.6365
0.258007,56.6286
0.257789,56.6217
0.257575,56.6152
0.257368,56.6084
0.257171,56.6013
0.256973,56.5942
0.256779,56.5872
0.25658,56.5806
0.256383,56.5748
0.256187,56.5697
0.255994,56.5646
0.255803,56.5588
0.255623,56.5517
0.25545,56.5423
0.255289,56.5302
0.255138,56.5149
0.254999,56.4962
0.254868,56.4738
0.254748,56.4478
0.254637,56.4187
0.254537,56.387
0.254446,56.3533
0.254362,56.3184
0.254281,56.283
0.2542,56.2476
0.254125,56.2124
0.254052,56.1778
0.253974,56.1436
0.253903,56.1104
0.253829,56.0777
0.253758,56.0457
0.253683,56.0144
0.253608,55.9837
0.253539,55.9533
0.253471,55.923
0.253403,55.8929
0.253337,55.863
0.253277,55.8329
0.253217,55.8029
0.25316,55.7729
0.253103,55.7428
0.25305,55.7126
0.252996,55.6822
0.25295,55.6515
0.252903,55.6205
0.252858,55.589
0.252814,55.557
0.252776,55.5248
0.252739,55.4919
0.252707,55.4582
0.252679,55.4242
0.252652,55.3898
0.252628,55.3549
0.252607,55.32
0.252587,55.2848
0.252572,55.2499
0.252555,55.2148
0.25254,55.1796
0.252528,55.1447
0.252516,55.1098
0.252504,55.0749
0.252495,55.0402
0.252485,55.0055
0.252478,54.9711
0.252471,54.9367
0.252463,54.9025
0.252454,54.8688
0.252448,54.8351
0.252445,54.8019
0.252437,54.769
0.25243,54.736
0.252424,54.7035
0.252421,54.6716
0.252417,54.6398
0.252412,54.6087
0.252408,54.578
0.252406,54.548
0.252401,54.5185
0.252397,54.4894
0.252394,54.4612
0.252391,54.4335
0.252388,54.4064
0.252385,54.38
0.25238,54.3542
0.252377,54.329
0.252376,54.3042
0.252374,54.2799
0.252374,54.2561
0.252373,54.2331
0.25237,54.2104
0.252369,54.1885
0.252367,54.1672
0.252363,54.1464
0.252361,54.1263
0.252361,54.1066
0.25236,54.0873
0.252358,54.0688
0.252358,54.0507
0.252356,54.0332
0.252356,54.0165
0.252355,54.0003
0.252355,53.9847
0.252351,53.9696
0.252353,53.9548
0.252354,53.9404
0.25235,53.9266
0.252352,53.9132
0.25235,53.9002
0.252349,53.8877
0.252348,53.8756
0.252349,53.8641
0.252352,53.8529
0.252353,53.8423
0.252351,53.8321
0.252354,53.8225
0.252352,53.8133
0.252356,53.8047
0.252355,53.7965
0.25236,53.7887
0.25236,53.7814
0.25236,53.7744
0.252365,53.768
0.252369,53.7619
0.252368,53.7563
0.252373,53.7512
0.252374,53.7465
0.252377,53.7422
0.25238,53.7382
0.252385,53.7343
0.252387,53.7306
0.252394,53.7273
0.252397,53.7243
0.252403,53.7216
0.252405,53.7193
0.252409,53.7171
0.252413,53.7151
0.252417,53.7133
0.252421,53.7115
0.252423,53.7101
0.252429,53.7089
0.252434,53.708
0.252438,53.7071
0.252445,53.7066
0.252449,53.7061
0.252459,53.7058
0.252465,53.7055
0.252477,53.7055
0.252485,53.7057
0.252499,53.7059
0.252509,53.7065
0.25252,53.7072
0.252533,53.7079
0.252546,53.7087
0.252561,53.7096
0.252576,53.7106
0.252595,53.7116
0.25261,53.7127
0.252628,53.714
0.252648,53.7154
0.252668,53.7168
0.252689,53.7182
0.252712,53.7196
0.252735,53.7209
0.252758,53.7224
0.252782,53.7238
0.252807,53.7254
0.252836,53.7272
0.252864,53.729
0.252889,53.7308
0.25292,53.7326
0.252948,53.7345
0.252979,53.7363
0.25301,53.7381
0.253042,53.74
0.253073,53.7418
0.253107,53.7435
0.253142,53.7451
0.253176,53.7464
0.253215,53.7476
0.25325,53.7487
0.253289,53.7497
0.253327,53.7508
0.253366,53.7519
0.253407,53.753
0.253446,53.754
0.253487,53.755
0.253529,53.7559
0.253571,53.7567
0.253616,53.7575
0.253658,53.7582
0.253703,53.7589
0.253751,53.7595
0.253797,53.7598
0.253846,53.7601
0.253895,53.7601
0.253945,53.7599
0.253995,53.7597
0.254048,53.7594
0.2541,53.7592
0.25415,53.759
0.254206,53.7587
0.254259,53.7584
0.254318,53.7582
0.254371,53.7579
0.254426,53.7576
0.254482,53.7576
0.254537,53.7576
0.254592,53.7578
0.25465,53.7579
0.254705,53.7579
0.254763,53.758
0.254818,53.7579
0.254876,53.7578
0.254932,53.7578
0.254989,53.758
0.25505,53.7583
0.255107,53.7588
0.255164,53.7595
0.25522,53.7603
0.255276,53.7614
0.255331,53.7627
0.255386,53.7643
0.25544,53.7662
0.255497,53.7683
0.255553,53.7706
0.255607,53.7729
0.255663,53.7752
0.25572,53.7772
0.255777,53.7792
0.255834,53.7809
0.255892,53.7824
0.255951,53.7837
0.256012,53.7847
0.256075,53.7855
0.256134,53.7861
0.256203,53.7865
0.256266,53.7869
0.256329,53.7874
0.256391,53.7881
0.256456,53.7892
0.25652,53.7906
0.256584,53.7924
0.256646,53.7945
0.256708,53.7968
0.256769,53.7995
0.256833,53.8026
0.256893,53.806
0.256954,53.8098
0.257013,53.8138
0.257071,53.818
0.257129,53.8224
0.257186,53.8269
0.257247,53.8315
0.257306,53.8363
0.257365,53.8414
0.257424,53.8468
0.257483,53.8523
0.257543,53.8582
0.2576,53.8645
0.257658,53.8712
0.257716,53.8785
0.257775,53.8866
0.257829,53.8956
0.257884,53.9055
0.257934,53.9163
0.257988,53.9282
0.258037,53.9409
0.258088,53.9545
0.258136,53.969
0.25818,53.9844
0.258225,54.0004
0.258268,54.0174
0.258314,54.0348
0.258355,54.0529
0.258398,54.0713
0.258437,54.0901
0.258479,54.1093
0.258521,54.1286
0.258562,54.148
0.258603,54.1675
0.258643,54.1873
0.258684,54.2068
0.258728,54.2262
0.258773,54.2454
0.258818,54.2643
0.258861,54.283
0.258907,54.3016
0.258956,54.3199
0.259002,54.3382
0.259052,54.3564
0.259099,54.3743
0.259151,54.3924
0.259201,54.4103
0.259254,54.4285
0.259303,54.4468
0.259355,54.4654
0.259406,54.4843
0.259456,54.5035
0.259506,54.5229
0.259556,54.5425
0.259604,54.5624
0.259653,54.5827
0.2597,54.6033
0.259752,54.6244
0.259797,54.6463
0.259844,54.6686
0.259892,54.6916
0.259939,54.7153
0.259988,54.7394
0.260032,54.7645
0.260074,54.7905
0.26012,54.8176
0.260159,54.8461
0.260201,54.8763
0.260238,54.9078
0.260271,54.9407
0.260304,54.9751
0.260332,55.011
0.260356,55.0484
0.260378,55.0872
0.260397,55.1272
0.260416,55.1685
0.260433,55.2105
0.260449,55.2535
0.260464,55.2969
0.260477,55.3409
0.260492,55.3855
0.260506,55.4312
0.260517,55.4773
0.260528,55.5245
0.260542,55.5721
0.260553,55.6204
0.260565,55.6692
0.260576,55.7186
0.260589,55.7684
0.260602,55.8184
0.260613,55.8689
0.260624,55.92
0.260634,55.9715
0.260646,56.023
0.260657,56.075
0.260668,56.1275
0.260678,56.18
0.26069,56.2332
0.260704,56.2869
0.260716,56.3414
0.260724,56.3965
0.260737,56.4522
0.260749,56.5083
0.26076,56.5647
0.260773,56.6216
0.260788,56.6788
0.260799,56.7366
0.26081,56.7945
0.260823,56.8531
0.260832,56.9117
0.260843,56.9707
0.260852,57.0298
0.260865,57.0894
0.260875,57.1492
0.260886,57.2098
0.260893,57.2708
0.260905,57.3326
0.260915,57.3951
0.260924,57.4581
0.260936,57.521
0.260946,57.5845
0.260956,57.6485
0.260966,57.7129
0.260978,57.7774
0.260989,57.8423
0.260997,57.9073
0.261007,57.9722
0.261021,58.0372
0.261036,58.1026
0.261052,58.168
0.261067,58.2339
0.261085,58.2999
0.261105,58.3658
0.261123,58.4317
0.261147,58.4971
0.261169,58.5621
0.261192,58.6265
0.261217,58.6905
0.261244,58.753
0.261276,58.8152
0.261312,58.8765
0.261348,58.9363
0.261385,58.9952
0.261432,59.0528
0.261483,59.1082
0.261537,59.1607
0.261605,59.2093
0.26168,59.2518
0.261778,59.2828
0.261917,59.2961
0.262092,59.2912
0.262294,59.2738
0.262514,59.2476
0.262748,59.2146
0.262994,59.1765
0.26325,59.1353
0.263504,59.0925
0.263751,59.0513
0.263978,59.0178
0.264173,58.9981
0.264337,58.9931
0.264472,58.9979
0.264597,59.0089
0.264708,59.0248
0.264812,59.0446
0.264909,59.0678
0.265,59.0939
0.265087,59.1223
0.265166,59.1527
0.265242,59.1847
0.265318,59.2184
0.265391,59.2531
0.26546,59.289
0.265525,59.3261
0.265589,59.3639
0.265651,59.4027
0.265712,59.4423
0.265771,59.4826
0.265832,59.5233
0.265888,59.5648
0.265946,59.6071
0.266005,59.65
0.266063,59.6937
0.266123,59.7379
0.266179,59.7824
0.266237,59.827
0.266293,59.872
0.266348,59.9169
0.266403,59.9618
0.26646,60.0072
0.266515,60.0526
0.266568,60.0983
0.266622,60.1442
0.266674,60.1901
0.26673,60.2362
0.266788,60.2826
0.266843,60.3292
0.2669,60.3761
0.266956,60.4232
0.267012,60.4706
0.267065,60.5182
0.267121,60.5656
0.267176,60.6129
0.267232,60.6605
0.267291,60.7081
0.267348,60.756
0.267403,60.8041
0.267462,60.8524
0.267524,60.901
0.267587,60.9491
0.267651,60.9972
0.267715,61.0448
0.26778,61.0924
0.267842,61.1393
0.267911,61.1862
0.267977,61.2326
0.268042,61.2787
0.268107,61.3246
0.268172,61.37
0.268241,61.4154
0.26831,61.4606
0.26838,61.5055
0.268453,61.5502
0.268526,61.5949
0.268597,61.6393
0.268669,61.6832
0.268741,61.7269
0.268814,61.7702
0.268892,61.8129
0.268969,61.8554
0.269047,61.8976
0.269129,61.9398
0.269208,61.9816
0.269291,62.0231
0.269377,62.0639
0.269462,62.1044
0.269549,62.1439
0.269631,62.183
0.269723,62.2213
0.269807,62.2594
0.269892,62.297
0.269977,62.3344
0.270063,62.3715
0.270149,62.4083
0.270237,62.445
0.270327,62.4813
0.270414,62.518
0.270501,62.5546
0.270587,62.5914
0.270673,62.6283
0.270757,62.6652
0.270843,62.702
0.270927,62.7392
0.271009,62.7765
0.27109,62.8143
0.271174,62.8529
0.271255,62.892
0.271337,62.9313
0.271417,62.9708
0.271498,63.0106
0.271579,63.0502
0.271661,63.0892
0.271739,63.1283
0.271819,63.1674
0.271896,63.2059
0.271973,63.2443
0.272054,63.2824
0.272136,63.3202
0.272218,63.3576
0.272298,63.3947
0.272382,63.4315
0.272466,63.4679
0.272552,63.5038
0.272639,63.5387
0.27273,63.5722
0.272817,63.6046
0.27291,63.6356
0.273009,63.6651
0.273111,63.693
0.273212,63.7197
0.273318,63.7455
0.27343,63.7706
0.273541,63.7953
0.273654,63.8195
0.273764,63.8433
0.273875,63.8667
0.273988,63.8899
0.2741,63.9129
0.274206,63.9359
0.274316,63.9586
0.274427,63.9812
0.274538,64.003
0.274651,64.0244
0.274765,64.0451
0.274874,64.0656
0.274989,64.0855
0.275105,64.1053
0.275222,64.1249
0.275335,64.1445
0.275446,64.1639
0.275557,64.1833
0.275667,64.2029
0.275778,64.2227
0.275887,64.243
0.275995,64.2639
0.276101,64.2855
0.276206,64.3079
0.276309,64.3309
0.276414,64.3546
0.276519,64.3786
0.276619,64.403
0.276721,64.428
0.276817,64.4534
0.276912,64.4793
0.277005,64.5056
0.277098,64.5322
0.277191,64.5592
0.277283,64.5863
0.277372,64.6136
0.277463,64.6413
0.277552,64.6696
0.277642,64.6979
0.277731,64.7266
0.277823,64.7552
0.277913,64.7831
0.278002,64.8105
0.278095,64.8371
0.278187,64.8629
0.278281,64.8878
0.27838,64.9116
0.278477,64.9344
0.278584,64.9561
0.278687,64.9763
0.278799,64.9952
0.278911,65.0125
0.279029,65.0286
0.279147,65.0433
0.279271,65.0564
0.279396,65.0677
0.279522,65.0767
0.279653,65.0827
0.279792,65.0856
0.279934,65.0857
0.280082,65.083
0.280234,65.0772
0.280392,65.0681
0.280562,65.0548
0.280744,65.036
0.280937,65.0101
0.281147,64.9757
0.281381,64.9305
0.28164,64.8697
0.281957,64.7828
0.282586,64.5426
0.283544,64.1441
0.284574,63.7066
0.28565,63.2496
0.286741,62.7828
0.287839,62.3121
0.28893,61.8414
0.289998,61.3727
0.291028,60.9137
0.291982,60.4742
0.292608,60.1832
0.292901,60.0465
0.29311,59.9469
0.293284,59.8644
0.293434,59.7916
0.293572,59.7252
0.293697,59.6646
0.293812,59.6095
0.293917,59.5584
0.294012,59.5111
0.294101,59.4666
0.294185,59.4249
0.294261,59.3853
0.294336,59.3478
0.294404,59.3121
0.294465,59.2784
0.294529,59.2462
0.294584,59.2154
0.294639,59.1861
0.294691,59.1579
0.294741,59.131
0.294786,59.105
0.294832,59.0799
0.294874,59.0558
0.294916,59.0326
0.294956,59.0102
0.294999,58.9884
0.295036,58.9673
0.295076,58.9468
0.295111,58.9269
0.295149,58.9076
0.295185,58.8888
0.295219,58.8706
0.295253,58.853
0.295285,58.8359
0.29532,58.8193
0.29535,58.8031
0.295383,58.7872
0.295415,58.7718
0.295446,58.7569
0.295476,58.7425
0.295505,58.7285
0.295533,58.7148
0.295561,58.7015
0.295588,58.6884
0.295614,58.6756
0.29564,58.6632
0.295665,58.651
0.29569,58.6393
0.295716,58.6277
0.29574,58.6165
0.295765,58.6054
0.295794,58.5946
0.295818,58.5841
0.295846,58.5738
0.295872,58.5638
0.295901,58.5541
0.295929,58.5448
0.295953,58.5357
0.295981,58.5268
0.29601,58.518
0.296037,58.5096
0.296065,58.5014
0.296096,58.4935
0.296123,58.486
0.296155,58.4788
0.296187,58.472
0.296221,58.4654
0.296254,58.4592
0.296286,58.4534
0.296321,58.4481
0.296357,58.4432
0.296389,58.4389
0.296423,58.4352
0.296453,58.4321
0.296486,58.4298
0.296513,58.4283
0.296543,58.4275
0.296572,58.4277
0.296599,58.4288
0.296623,58.431
0.296646,58.4343
0.296666,58.4386
0.296687,58.4438
0.296709,58.4499
0.296728,58.4565
0.296747,58.4639
0.296765,58.472
0.296782,58.4809
0.2968,58.4903
0.296817,58.5003
0.296837,58.5105
0.296852,58.5212
0.29687,58.5323
0.29689,58.5439
0.296906,58.5558
0.296924,58.5682
0.296941,58.581
0.296957,58.5942
0.296975,58.6078
0.296993,58.6217
0.297013,58.636
0.297029,58.6507
0.297047,58.6658
0.297061,58.6814
0.29708,58.6974
0.297096,58.7137
0.297113,58.7306
0.297133,58.7478
0.297152,58.7655
0.297169,58.7836
0.297186,58.8021
0.297205,58.8212
0.29722,58.8406
0.297239,58.8606
0.297255,58.881
0.297276,58.9018
0.297293,58.9232
0.297309,58.9449
0.297327,58.9671
0.297347,58.9897
0.297366,59.0128
0.297381,59.0364
0.297401,59.0605
0.29742,59.0848
0.297439,59.1095
0.297454,59.1344
0.297471,59.1598
0.297491,59.1854
0.297507,59.2115
0.297525,59.238
0.297542,59.2648
0.297561,59.2917
0.297581,59.3191
0.297599,59.3468
0.297619,59.3749
0.297636,59.4032
0.297657,59.4321
0.297675,59.4614
0.297695,59.491
0.297717,59.5211
0.297739,59.5515
0.297759,59.5823
0.297782,59.6134
0.297804,59.6449
0.297824,59.6771
0.297847,59.7096
0.297869,59.7423
0.297894,59.7755
0.297918,59.8087
0.297939,59.8421
0.297965,59.8756
0.297989,59.909
0.298009,59.9427
0.298033,59.9764
0.298059,60.0104
0.298082,60.0441
0.298108,60.0777
0.298133,60.1117
0.298159,60.1456
0.298187,60.1798
0.298212,60.2142
0.298239,60.2489
0.298265,60.2838
0.298294,60.319
0.29832,60.3544
0.298348,60.39
0.298378,60.4259
0.298408,60.4618
0.298438,60.4979
0.298467,60.5343
0.298497,60.5707
0.298529,60.6073
0.298557,60.6439
0.298589,60.6805
0.29862,60.7174
0.298652,60.7543
0.298682,60.7914
0.298715,60.8285
0.298745,60.8663
0.29878,60.9042
0.298814,60.9425
0.298848,60.9808
0.298881,61.0194
0.298917,61.0582
0.298953,61.0973
0.298991,61.1361
0.299029,61.1754
0.299065,61.2145
0.299103,61.2533
0.299142,61.2921
0.299178,61.3309
0.299214,61.3697
0.299254,61.4081
0.299291,61.4459
0.299332,61.4837
0.299375,61.5209
0.299418,61.5572
0.299467,61.5929
0.299514,61.6278
0.299566,61.6615
0.29962,61.6942
0.299681,61.7254
0.299743,61.7556
0.299807,61.7849
0.299871,61.8132
0.299939,61.8406
0.300006,61.8672
0.300077,61.8931
0.300147,61.9182
0.300218,61.9429
0.300293,61.9673
0.300367,61.9917
0.300442,62.0161
0.300516,62.0406
0.300593,62.065
0.300667,62.0897
0.300746,62.1146
0.300825,62.1398
0.3009,62.1655
0.300977,62.1916
0.301047,62.2181
0.301121,62.2452
0.301192,62.2727
0.301259,62.3006
0.301328,62.3291
0.301396,62.358
0.301461,62.3874
0.301529,62.4173
0.301594,62.448
0.30166,62.4792
0.301722,62.5107
0.301786,62.543
0.30185,62.5752
0.301914,62.6079
0.301976,62.6409
0.302038,62.6743
0.302098,62.7082
0.302155,62.7424
0.302214,62.7773
0.302269,62.8122
0.30233,62.8476
0.302386,62.8835
0.302442,62.9197
0.3025,62.9563
0.302557,62.9934
0.302612,63.0312
0.302667,63.0693
0.302725,63.1074
0.302782,63.146
0.302838,63.1846
0.302895,63.2234
0.302954,63.2622
0.303009,63.3013
0.303062,63.3406
0.303117,63.3799
0.303172,63.4192
0.303227,63.4587
0.303281,63.4985
0.303335,63.5383
0.303391,63.5786
0.303444,63.6191
0.303499,63.6601
0.303553,63.7014
0.303609,63.7427
0.303666,63.7842
0.30372,63.8254
0.303774,63.8669
0.303828,63.9082
0.303881,63.9497
0.303938,63.9912
0.303991,64.0329
0.304044,64.0749
0.304102,64.1172
0.304156,64.1594
0.304216,64.2024
0.304275,64.2453
0.304331,64.2886
0.304388,64.3323
0.304445,64.3762
0.304502,64.4204
0.304556,64.4646
0.30461,64.5088
0.304667,64.553
0.304723,64.5972
0.30478,64.6416
0.304833,64.6863
0.304891,64.7309
0.304946,64.7761
0.305003,64.8213
0.305061,64.8664
0.305118,64.9116
0.305176,64.9568
0.305237,65.0019
0.305291,65.0471
0.305348,65.0925
0.305405,65.1382
0.305466,65.1833
0.305526,65.2287
0.305585,65.2744
0.305645,65.3201
0.305706,65.3664
0.305766,65.4128
0.30583,65.4595
0.305893,65.5058
0.305957,65.5525
0.306023,65.5989
0.306084,65.6452
0.306146,65.6911
0.306215,65.7368
0.306277,65.7825
0.306343,65.8276
0.30641,65.8728
0.306474,65.9177
0.306543,65.9626
0.306611,66.0071
0.306685,66.0515
0.306753,66.0957
0.306825,66.1396
0.306895,66.1831
0.306968,66.2265
0.307039,66.2695
0.307113,66.312
0.307188,66.3542
0.307264,66.3965
0.307343,66.4385
0.307422,66.4802
0.307504,66.522
0.307584,66.5635
0.307667,66.6047
0.307751,66.6455
0.307834,66.6858
0.307917,66.7253
0.307998,66.7646
0.308081,66.8035
0.308161,66.8418
0.308243,66.8796
0.308325,66.9172
0.308411,66.9541
0.308498,66.9907
0.308585,67.0271
0.30867,67.0632
0.308759,67.0993
0.308843,67.1355
0.308932,67.1714
0.309014,67.2075
0.309096,67.2436
0.309181,67.28
0.309265,67.3166
0.309348,67.3535
0.309431,67.3906
0.309517,67.4277
0.309603,67.4648
0.309689,67.5019
0.309776,67.5386
0.309861,67.5749
0.309947,67.6106
0.310035,67.6452
0.310121,67.6792
0.310209,67.7126
0.310299,67.7451
0.31039,67.7768
0.310479,67.8081
0.310575,67.8389
0.31067,67.869
0.310768,67.8988
0.310861,67.9281
0.310961,67.9575
0.311057,67.9868
0.31115,68.0163
0.311243,68.0458
0.311333,68.0751
0.311429,68.1046
0.311525,68.1341
0.311621,68.1638
0.311715,68.1937
0.311807,68.224
0.311904,68.2543
0.312001,68.2848
0.312094,68.3153
0.312188,68.3461
0.31228,68.3773
0.312369,68.4086
0.312457,68.4403
0.312548,68.4725
0.312634,68.505
0.312721,68.5377
0.312803,68.5712
0.312887,68.6046
0.312974,68.6388
0.313057,68.673
0.313143,68.7074
0.313225,68.7418
0.31331,68.7765
0.313392,68.8111
0.313472,68.8461
0.313553,68.881
0.313635,68.9159
0.313716,68.9513
0.313796,68.9869
0.313878,69.0228
0.313957,69.0594
0.314037,69.0965
0.314115,69.1344
0.314193,69.173
0.314269,69.2118
0.314348,69.2511
0.314422,69.2911
0.314492,69.3314
0.314564,69.3724
0.314632,69.4139
0.314702,69.4559
0.314769,69.4984
0.314836,69.5414
0.314903,69.5851
0.314968,69.6293
0.315033,69.6737
0.3151,69.7189
0.315163,69.764
0.315225,69.8097
0.315287,69.8556
0.315346,69.9015
0.315407,69.9476
0.315469,69.994
0.315529,70.0406
0.315591,70.0878
0.315652,70.1354
0.315716,70.1835
0.315776,70.2318
0.315838,70.2804
0.315902,70.3292
0.315963,70.3783
0.316024,70.4279
0.316081,70.4774
0.316141,70.527
0.316201,70.5765
0.316261,70.6264
0.316318,70.6759
0.316378,70.7255
0.316441,70.775
0.316501,70.8248
0.316566,70.8746
0.316629,70.9242
0.316692,70.974
0.316755,71.0236
0.316818,71.0731
0.316881,71.1227
0.316944,71.1725
0.317006,71.2223
0.31707,71.2726
0.317137,71.3231
0.317203,71.3744
0.31727,71.4262
0.317333,71.4782
0.317402,71.5306
0.317467,71.5836
0.317531,71.6368
0.317591,71.6906
0.317654,71.7445
0.317713,71.7987
0.317772,71.8534
0.317829,71.9083
0.317889,71.9638
0.317945,72.0194
0.318007,72.0753
0.318067,72.1317
0.318127,72.1884
0.318183,72.2455
0.318235,72.3031
0.31829,72.361
0.318344,72.4188
0.318401,72.4772
0.318461,72.5355
0.318519,72.5941
0.318578,72.6527
0.318639,72.7116
0.318701,72.7704
0.318762,72.8292
0.318821,72.8876
0.318879,72.9457
0.318939,73.0033
0.319004,73.0607
0.31906,73.1176
0.319122,73.1744
0.319182,73.2311
0.319245,73.2877
0.319309,73.3441
0.319373,73.4
0.319437,73.4562
0.319501,73.5121
0.319563,73.568
0.319627,73.6242
0.319688,73.6803
0.319751,73.7369
0.319817,73.7936
0.31988,73.8502
0.319945,73.9069
0.320015,73.9633
0.320081,74.0197
0.32015,74.0758
0.320215,74.132
0.320279,74.1879
0.320345,74.2433
0.320411,74.2982
0.320476,74.3522
0.320546,74.4059
0.320616,74.4591
0.320687,74.5116
0.320764,74.5631
0.320842,74.6137
0.32092,74.663
0.321003,74.7113
0.321083,74.7582
0.321169,74.8038
0.321257,74.8485
0.321344,74.8922
0.321437,74.9352
0.321532,74.9779
0.321628,75.0201
0.321724,75.0621
0.321824,75.1036
0.321924,75.1451
0.322023,75.1859
0.322119,75.2267
0.322218,75.267
0.322318,75.3073
0.322415,75.3473
0.322514,75.3868
0.322612,75.4262
0.322712,75.4652
0.322815,75.5038
0.322919,75.5421
0.32302,75.5805
0.323122,75.618
0.323225,75.6552
0.323328,75.6913
0.323429,75.7264
0.323539,75.7606
0.323647,75.7938
0.32376,75.8263
0.323877,75.8583
0.323993,75.8895
0.324109,75.9203
0.324226,75.9508
0.324343,75.9813
0.324457,76.012
0.324567,76.043
0.324677,76.0745
0.324785,76.1065
0.324892,76.1389
0.324998,76.1719
0.325102,76.2056
0.325204,76.2398
0.325306,76.2744
0.325408,76.3091
0.325506,76.3445
0.325607,76.3801
0.3257,76.4165
0.325796,76.4531
0.325888,76.49
0.325983,76.5274
0.326079,76.5649
0.326174,76.603
0.326269,76.6416
0.326363,76.6807
0.326456,76.7197
0.326549,76.759
0.326639,76.7983
0.32673,76.8374
0.326821,76.8762
0.326912,76.9148
0.327002,76.9531
0.327091,76.9912
0.327184,77.0291
0.327278,77.0667
0.327373,77.1038
0.327468,77.1406
0.327564,77.1768
0.327663,77.2122
0.327758,77.2473
0.327858,77.282
0.327955,77.3164
0.328054,77.3503
0.328153,77.3838
0.32826,77.4165
0.328368,77.4485
0.32848,77.48
0.328591,77.5107
0.328703,77.5408
0.328814,77.5698
0.32893,77.5979
0.329046,77.6248
0.329162,77.6503
0.329285,77.6737
0.329564,77.62
0.330655,77.1747
0.331875,76.6669
0.333165,76.1278
0.3345,75.5614
0.335896,74.9716
0.337346,74.3505
0.338849,73.6981
0.340382,73.0184
0.341939,72.3036
0.343358,71.6434
0.343991,71.3446
0.344533,71.0868
0.345051,70.8368
0.345555,70.5927
0.346043,70.3563
0.346503,70.1307
0.346926,69.9208
0.34731,69.7274
0.347655,69.5477
0.347972,69.3778
0.348267,69.2157
0.348549,69.0565
0.348834,68.8954
0.34912,68.7313
0.349408,68.5643
0.349694,68.3954
0.349978,68.2274
0.350253,68.0614
0.35052,67.8983
0.350777,67.7411
0.351009,67.5917
0.351214,67.453
0.351383,67.329
0.351519,67.2196
0.351629,67.1234
0.351715,67.037
0.351783,66.9594
0.35184,66.8881
0.351885,66.8226
0.351915,66.7618
0.351942,66.7052
0.351963,66.6517
0.351977,66.6014
0.351986,66.5538
0.351988,66.5092
0.351987,66.4677
0.35198,66.4286
0.351969,66.3922
0.351955,66.358
0.351931,66.3261
0.351912,66.2962
0.351882,66.2682
0.351853,66.2418
0.351823,66.2168
0.351791,66.1928
0.351758,66.1696
0.351723,66.1471
0.35169,66.1251
0.351659,66.1038
0.351626,66.0829
0.3516,66.0623
0.351572,66.0416
0.351545,66.0214
0.351519,66.0014
0.351497,65.9815
0.351476,65.9618
0.351456,65.9423
0.351438,65.923
0.351419,65.9036
0.351404,65.8845
0.35139,65.8661
0.351375,65.8478
0.351363,65.83
0.351352,65.8125
0.351342,65.7951
0.351331,65.7778
0.351319,65.7611
0.35131,65.7446
0.351305,65.7285
0.351294,65.7128
0.351289,65.6972
0.351282,65.6821
0.351278,65.6671
0.351277,65.6525
0.351268,65.6383
0.351265,65.6244
0.351262,65.6106
0.351261,65.5971
0.351259,65.5837
0.351258,65.5704
0.351259,65.5573
0.351257,65.5441
0.351261,65.531
0.351264,65.5181
0.351268,65.5052
0.351274,65.4924
0.35128,65.4798
0.351286,65.467
0.351295,65.4543
0.351304,65.4416
0.351315,65.4289
0.351327,65.4163
0.351338,65.4038
0.351352,65.3914
0.351364,65.3788
0.351378,65.3662
0.351396,65.3535
0.35141,65.3409
0.351428,65.3283
0.351445,65.3155
0.351466,65.3025
0.351488,65.2894
0.35151,65.2761
0.351535,65.2626
0.35156,65.2488
0.351586,65.2349
0.351613,65.2207
0.35164,65.2063
0.35167,65.1917
0.351698,65.1767
0.351729,65.1616
0.351761,65.1462
0.351793,65.1305
0.351827,65.1145
0.351861,65.0982
0.351895,65.0814
0.351931,65.0642
0.35197,65.0466
0.352007,65.0287
0.352048,65.0104
0.35209,64.9916
0.352132,64.9724
0.352176,64.953
0.35222,64.9332
0.352269,64.9136
0.352313,64.8936
0.352363,64.8737
0.35241,64.8536
0.352458,64.8335
0.352508,64.8135
0.352559,64.7933
0.352612,64.7733
0.352662,64.7533
0.352712,64.7333
0.352765,64.7133
0.352819,64.693
0.352875,64.6727
0.352932,64.6524
0.352986,64.6317
0.353041,64.611
0.353102,64.59
0.353158,64.5684
0.353221,64.546
0.353284,64.5228
0.353352,64.4984
0.35342,64.4727
0.353494,64.4454
0.353572,64.4161
0.353658,64.3847
0.353746,64.3502
0.353845,64.3124
0.353949,64.2704
0.354064,64.2235
0.354202,64.1664
0.354395,64.0824
0.354634,63.976
0.354903,63.8563
0.355191,63.7265
0.355493,63.5897
0.3558,63.4491
0.356109,63.3056
0.356421,63.163
0.356723,63.0214
0.357003,62.8876
0.357229,62.7792
0.357409,62.6923
0.357562,62.6185
0.35769,62.5556
0.357801,62.5004
0.357899,62.4513
0.357987,62.4074
0.358067,62.3676
0.358137,62.3312
0.3582,62.2975
0.358256,62.2662
0.358308,62.2371
0.358359,62.2097
0.358403,62.184
0.358445,62.1596
0.358485,62.1362
0.358523,62.1139
0.358561,62.0924
0.358598,62.0718
0.35863,62.0519
0.358665,62.0325
0.358697,62.0139
0.358729,61.996
0.358759,61.9788
0.35879,61.962
0.358818,61.9459
0.358847,61.9303
0.358872,61.9155
0.358899,61.9011
0.358928,61.8873
0.358952,61.874
0.358976,61.861
0.359002,61.8485
0.359027,61.8363
0.359051,61.8247
0.359075,61.8135
0.359097,61.8027
0.359119,61.7922
0.35914,61.7819
0.359161,61.7719
0.359181,61.7623
0.359203,61.753
0.359224,61.744
0.359245,61.7353
0.359266,61.7268
0.359286,61.7185
0.359309,61.7104
0.359334,61.7025
0.359355,61.6949
0.359379,61.6875
0.359403,61.6803
0.359426,61.6732
0.359452,61.6664
0.359478,61.6596
0.359506,61.653
0.359534,61.6466
0.359561,61.6403
0.359588,61.6342
0.359618,61.6282
0.359648,61.6223
0.359683,61.6166
0.359715,61.6109
0.35975,61.6054
0.359784,61.6
0.359818,61.5947
0.359852,61.5894
0.359889,61.5843
0.359923,61.5792
0.359962,61.5742
0.359999,61.5694
0.360035,61.5646
0.360074,61.5598
0.360112,61.5552
0.360151,61.5506
0.360189,61.5462
0.360227,61.5417
0.360268,61.5373
0.360309,61.5331
0.36035,61.5289
0.36039,61.5248
0.360434,61.5207
0.360477,61.5167
0.36052,61.5127
0.360563,61.509
0.360608,61.5052
0.36065,61.5018
0.360695,61.4984
0.360739,61.4953
0.360783,61.4924
0.360826,61.49
0.360871,61.4879
0.360912,61.4863
0.360958,61.4851
0.360997,61.4843
0.361039,61.4838
0.36108,61.4836
0.361121,61.4835
0.361161,61.4837
0.361205,61.4838
0.361248,61.484
0.361291,61.484
0.361336,61.4837
0.361384,61.483
0.361432,61.482
0.361482,61.4806
0.361532,61.4789
0.361585,61.4769
0.361639,61.4746
0.361691,61.4722
0.361746,61.4695
0.361804,61.4668
0.361858,61.4644
0.361912,61.4623
0.361968,61.4604
0.36202,61.459
0.362075,61.4578
0.362129,61.4571
0.362179,61.4567
0.362232,61.4567
0.362283,61.4571
0.362334,61.4578
0.362384,61.4587
0.362431,61.4599
0.362484,61.4612
0.362536,61.4627
0.362585,61.4645
0.362636,61.4665
0.362683,61.4687
0.362734,61.4711
0.362783,61.4738
0.362833,61.4765
0.362885,61.4794
0.362934,61.4824
0.362985,61.4856
0.363033,61.489
0.363085,61.4924
0.363136,61.4959
0.363186,61.4995
0.36324,61.5031
0.36329,61.5067
0.363344,61.5105
0.363394,61.5145
0.363449,61.5184
0.363505,61.5224
0.363558,61.5263
0.363614,61.5304
0.363671,61.5346
0.363724,61.5389
0.363781,61.5433
0.363836,61.5478
0.36389,61.5525
0.363941,61.5573
0.363997,61.5626
0.36405,61.568
0.364102,61.5738
0.364156,61.5801
0.364208,61.587
0.364256,61.5949
0.364304,61.6042
0.36435,61.6155
0.364388,61.6296
0.364422,61.6464
0.364454,61.6661
0.36448,61.6886
0.364504,61.7139
0.364518,61.7419
0.364531,61.7723
0.364539,61.8047
0.364547,61.8392
0.364552,61.8743
0.364556,61.9104
0.364562,61.9466
0.364568,61.9832
0.364576,62.0201
0.364586,62.0574
0.364592,62.095
0.364601,62.1329
0.364606,62.1712
0.364613,62.21
0.36462,62.2488
0.364629,62.2879
0.364637,62.3272
0.364643,62.3665
0.364654,62.4063
0.364661,62.4461
0.364671,62.4864
0.36468,62.5269
0.364688,62.5679
0.364699,62.6092
0.364709,62.6507
0.364718,62.6927
0.364726,62.7351
0.364738,62.7781
0.364747,62.8216
0.364759,62.865
0.364769,62.909
0.364783,62.9532
0.364795,62.9976
0.364807,63.0423
0.364819,63.0872
0.364833,63.1324
0.364844,63.1778
0.364857,63.2234
0.364873,63.2691
0.364885,63.315
0.3649,63.3614
0.364916,63.4082
0.364929,63.4554
0.364944,63.5027
0.364961,63.5506
0.364978,63.5987
0.364996,63.6473
0.365014,63.6961
0.365032,63.7452
0.365049,63.7945
0.365069,63.8438
0.365088,63.8934
0.365108,63.9432
0.365127,63.993
0.365146,64.0425
0.365164,64.0926
0.365183,64.1424
0.365202,64.1924
0.365225,64.2427
0.365246,64.2933
0.365266,64.344
0.365288,64.3951
0.365313,64.4461
0.365335,64.4971
0.365362,64.5486
0.365386,64.6001
0.36541,64.6517
0.365437,64.7032
0.365462,64.7544
0.365487,64.8055
0.365515,64.8565
0.365544,64.9073
0.365572,64.9581
0.3656,65.0091
0.365634,65.0603
0.365663,65.1119
0.365695,65.1639
0.365729,65.2161
0.365763,65.2688
0.365796,65.3216
0.365831,65.3748
0.365866,65.428
0.365899,65.4812
0.365931,65.5345
0.365966,65.5877
0.365999,65.6407
0.366037,65.6936
0.366073,65.7464
0.366112,65.7991
0.366148,65.8519
0.36619,65.9046
0.36623,65.9571
0.366272,66.0096
0.366315,66.0618
0.366356,66.1136
0.366401,66.1648
0.366446,66.2161
0.366493,66.2666
0.366542,66.3172
0.36659,66.3672
0.366641,66.417
0.366693,66.4661
0.366749,66.5149
0.366806,66.563
0.366865,66.6104
0.366928,66.6573
0.366993,66.7029
0.367061,66.7476
0.367131,66.7906
0.367206,66.8318
0.367281,66.8714
0.367363,66.909
0.367447,66.9439
0.367537,66.9764
0.367635,67.0063
0.367739,67.0331
0.367847,67.0569
0.367966,67.0768
0.368092,67.0915
0.368235,67.0996
0.368393,67.0991
0.368573,67.088
0.368775,67.0648
0.369008,67.027
0.369269,66.9745
0.369556,66.9096
0.369868,66.8334
0.370189,66.7499
0.370523,66.663
0.370851,66.5761
0.371173,66.4911
0.371478,66.412
0.37176,66.3412
0.372016,66.2824
0.372241,66.2362
0.372438,66.2018
0.372612,66.1775
0.372765,66.1616
0.372899,66.1526
0.373022,66.1492
0.373136,66.1507
0.37324,66.1568
0.373335,66.1668
0.37342,66.1803
0.373499,66.197
0.373575,66.2166
0.373646,66.2385
0.373712,66.2625
0.373775,66.2883
0.373835,66.3157
0.373891,66.3446
0.373945,66.3746
0.373994,66.4058
0.374044,66.438
0.374088,66.4712
0.374137,66.5054
0.374179,66.5408
0.374223,66.5772
0.374265,66.6145
0.374304,66.6531
0.374348,66.6924
0.374383,66.7329
0.374426,66.7739
0.374461,66.8159
0.374501,66.8584
0.374537,66.9014
0.374576,66.9446
0.37461,66.9883
0.374647,67.032
0.374681,67.0762
0.374717,67.1206
0.374752,67.1653
0.374787,67.2102
0.374824,67.2554
0.374857,67.301
0.37489,67.3472
0.374927,67.3938
0.37496,67.4409
0.374996,67.4883
0.375034,67.5359
0.375069,67.5838
0.375106,67.6319
0.375139,67.6802
0.375172,67.729
0.375207,67.7781
0.375238,67.8274
0.375275,67.8772
0.375307,67.9273
0.375342,67.978
0.375379,68.0291
0.375414,68.0808
0.375449,68.1328
0.375489,68.1851
0.375522,68.2378
0.375564,68.2905
0.3756,68.3433
0.375639,68.3963
0.375674,68.4492
0.37571,68.5025
0.375745,68.5554
0.37578,68.6084
0.375816,68.6616
0.375854,68.7146
0.375889,68.7681
0.375923,68.8218
0.375962,68.8757
0.375998,68.9299
0.376039,68.9846
0.376077,69.0396
0.376111,69.0945
0.376144,69.1499
0.376183,69.2056
0.376215,69.2617
0.37625,69.3179
0.376288,69.374
0.376322,69.4309
0.376357,69.4881
0.376392,69.5454
0.376429,69.6033
0.376468,69.6616
0.376504,69.72
0.376543,69.7786
0.376578,69.8374
0.376619,69.8963
0.376654,69.9551
0.376689,70.0139
0.376725,70.0725
0.376761,70.1311
0.3768,70.1895
0.376839,70.2478
0.376878,70.3062
0.376916,70.3645
0.376959,70.4229
0.377001,70.481
0.377044,70.5388
0.377088,70.5965
0.377132,70.6538
0.377176,70.7107
0.377222,70.7673
0.377268,70.8237
0.377318,70.8794
0.377373,70.9346
0.377425,70.989
0.377486,71.0427
0.377549,71.095
0.377616,71.1453
0.377688,71.1934
0.377767,71.2381
0.377854,71.2788
0.377946,71.3142
0.378059,71.3429
0.37819,71.3624
0.378337,71.3723
0.378509,71.3724
0.378701,71.3626
0.378913,71.3435
0.379137,71.3164
0.379376,71.2824
0.379628,71.2424
0.379883,71.197
0.380147,71.1477
0.380412,71.0949
0.380688,71.0376
0.380974,70.9736
0.381276,70.9018
0.381589,70.8237
0.381913,70.7392
0.382248,70.6489
0.382592,70.5542
0.382935,70.4575
0.383278,70.3608
0.383606,70.2671
0.383917,70.1797
0.384207,70.1015
0.384467,70.0351
0.384697,69.9802
0.384907,69.936
0.385091,69.9021
0.385253,69.877
0.385397,69.8596
0.385528,69.8483
0.385648,69.8423
0.385757,69.8405
0.385861,69.8419
0.385957,69.846
0.386048,69.8528
0.386137,69.8615
0.386217,69.8723
0.386296,69.8846
0.386372,69.8982
0.386443,69.9132
0.386514,69.9293
0.38658,69.9464
0.386647,69.9644
0.386709,69.9837
0.386772,70.0039
0.386833,70.025
0.386892,70.0471
0.386949,70.0702
0.387007,70.0942
0.387063,70.1191
0.387117,70.1449
0.387169,70.1716
0.387222,70.1993
0.387274,70.2276
0.387322,70.2566
0.387371,70.2862
0.387419,70.3163
0.387466,70.3466
0.387513,70.3777
0.387558,70.4089
0.3876,70.4409
0.387646,70.4731
0.387689,70.5056
0.387734,70.539
0.387774,70.5727
0.387813,70.6071
0.387854,70.6423
0.387896,70.6779
0.387934,70.7143
0.387974,70.7514
0.388012,70.789
0.38805,70.8271
0.388086,70.8657
0.388124,70.9048
0.388162,70.9443
0.388199,70.9839
0.388232,71.0241
0.388267,71.0647
0.388304,71.1059
0.388337,71.1474
0.388372,71.1892
0.388406,71.2319
0.388442,71.2749
0.38848,71.3181
0.388514,71.362
0.388553,71.4067
0.38859,71.4516
0.388624,71.4973
0.388663,71.5432
0.388698,71.5893
0.388732,71.6357
0.388769,71.6826
0.388802,71.7297
0.388834,71.7773
0.388869,71.8254
0.388902,71.8737
0.388935,71.9223
0.388967,71.9716
0.389001,72.0212
0.389034,72.0713
0.389069,72.1216
0.389103,72.1723
0.389137,72.2234
0.38917,72.2746
0.389206,72.3264
0.389239,72.3779
0.389271,72.4299
0.389306,72.4817
0.38934,72.5337
0.389374,72.5862
0.389407,72.6391
0.389443,72.6921
0.38948,72.7456
0.389517,72.7995
0.389552,72.854
0.389587,72.9087
0.389624,72.9638
0.389663,73.0193
0.389699,73.0749
0.389735,73.1306
0.389771,73.1862
0.389806,73.2422
0.389842,73.2978
0.389878,73.3535
0.389914,73.4091
0.389947,73.4648
0.389986,73.5205
0.390021,73.5764
0.390059,73.6325
0.390096,73.6889
0.390133,73.7453
0.390171,73.8017
0.39021,73.8586
0.390246,73.9155
0.390282,73.9726
0.390323,74.0298
0.390362,74.0871
0.390402,74.1447
0.390442,74.2026
0.390479,74.2607
0.39052,74.3193
0.390561,74.3781
0.390604,74.4375
0.390644,74.4968
0.390683,74.5564
0.390722,74.6162
0.390761,74.6762
0.390796,74.7361
0.390835,74.7961
0.390873,74.8562
0.390912,74.9162
0.39095,74.9765
0.39099,75.0368
0.391031,75.0974
0.391071,75.1582
0.391111,75.2187
0.391153,75.2798
0.391192,75.341
0.391227,75.4026
0.391268,75.4643
0.391305,75.5266
0.391344,75.5891
0.391382,75.6521
0.391421,75.7155
0.39146,75.78
0.391504,75.844
0.391548,75.9089
0.391588,75.9734
0.391631,76.0383
0.391671,76.1032
0.391711,76.1682
0.391751,76.2331
0.391793,76.2986
0.391833,76.3635
0.391878,76.4284
0.39192,76.4939
0.391964,76.5593
0.392011,76.6252
0.392055,76.6911
0.392098,76.7575
0.392141,76.8239
0.392183,76.8904
0.392225,76.9572
0.392266,77.0246
0.392312,77.092
0.392353,77.1609
0.392397,77.2292
0.392439,77.2986
0.392487,77.3679
0.392532,77.4377
0.392576,77.508
0.392616,77.5783
0.392656,77.6487
0.392701,77.7195
0.392738,77.7903
0.392784,77.8611
0.392826,77.9319
0.392868,78.0027
0.392915,78.0739
0.392958,78.1457
0.393001,78.218
0.39304,78.2903
0.393081,78.3625
0.393122,78.4358
0.393166,78.509
0.393205,78.5827
0.393248,78.657
0.393291,78.7317
0.393336,78.8069
0.393378,78.882
0.393425,78.9577
0.393468,79.0334
0.393511,79.1096
0.393551,79.1858
0.393593,79.2624
0.393631,79.3396
0.393671,79.4167
0.393714,79.4944
0.393756,79.5725
0.3938,79.6511
0.393839,79.7302
0.393881,79.8098
0.393919,79.8899
0.393958,79.9704
0.393996,80.052
0.394033,80.1335
0.394075,80.2155
0.394119,80.2981
0.394162,80.3811
0.394205,80.4646
0.394249,80.5486
0.394287,80.6325
0.394328,80.7165
0.394369,80.801
0.394409,80.8855
0.394452,80.9699
0.394492,81.0544
0.394538,81.1389
0.394581,81.2234
0.394627,81.3078
0.394666,81.3928
0.394712,81.4773
0.394756,81.5627
0.394803,81.6482
0.394849,81.7341
0.394898,81.8202
0.39495,81.9056
0.395003,81.9911
0.395056,82.076
0.395106,82.1615
0.395154,82.2464
0.395199,82.3314
0.395248,82.4159
0.395296,82.4994
0.395351,82.5824
0.395403,82.6649
0.395459,82.7479
0.395508,82.8304
0.395563,82.9134
0.39561,82.9964
0.395665,83.0789
0.395717,83.1619
0.395772,83.245
0.395827,83.328
0.395887,83.411
0.395945,83.494
0.396,83.577
0.396056,83.6595
0.396106,83.742
0.396163,83.8241
0.396217,83.9061
0.396272,83.9871
0.396332,84.0682
0.396392,84.1483
0.396453,84.2284
0.396514,84.3084
0.396572,84.3885
0.396632,84.4691
0.396692,84.5496
0.396753,84.6297
0.396817,84.7098
0.396886,84.7899
0.396953,84.87
0.39702,84.95
0.397084,85.0301
0.397145,85.1097
0.397213,85.1893
0.397276,85.2684
0.397346,85.3465
0.397418,85.4242
0.39749,85.5018
0.397564,85.5785
0.397639,85.6546
0.397715,85.7298
0.397789,85.805
0.397865,85.8792
0.397945,85.953
0.39803,86.0257
0.398117,86.0975
0.398208,86.1683
0.398303,86.2376
0.398396,86.3065
0.39849,86.3734
0.398586,86.4393
0.398687,86.5028
0.398793,86.5638
0.398906,86.6219
0.399027,86.6771
0.399153,86.7286
0.399283,86.7762
0.399423,86.8194
0.399575,86.8573
0.399736,86.89
0.399906,86.9179
0.400091,86.9419
0.40028,86.9632
0.40047,86.9826
0.40066,87.0013
0.400848,87.0201
0.40103,87.04
0.401206,87.062
0.401375,87.087
0.401534,87.1156
0.401686,87.1473
0.401831,87.182
0.401973,87.2193
0.402107,87.2584
0.402238,87.2989
0.402364,87.3409
0.402489,87.3839
0.402613,87.4278
0.402736,87.4727
0.402856,87.5184
0.402978,87.5648
0.403102,87.6117
0.403221,87.6593
0.403337,87.7074
0.403447,87.7564
0.403559,87.8065
0.403666,87.8573
0.403768,87.909
0.403872,87.9613
0.403974,88.0147
0.404076,88.0692
0.40417,88.1246
0.404266,88.181
0.404353,88.2384
0.404442,88.2965
0.404529,88.3556
0.404618,88.4154
0.404705,88.4757
0.404794,88.5365
0.404883,88.5977
0.404971,88.6585
0.405059,88.7188
0.405145,88.7784
0.405233,88.8368
0.405317,88.8944
0.405406,88.9513
0.405497,89.0069
0.405592,89.0621
0.405687,89.1161
0.405785,89.1695
0.405885,89.2225
0.405979,89.2752
0.406075,89.3285
0.406167,89.3822
0.406259,89.4361
0.40635,89.4906
0.406442,89.5452
0.406535,89.6002
0.406628,89.6551
0.40672,89.7103
0.406815,89.7652
0.406901,89.8206
0.406987,89.8761
0.407074,89.931
0.407158,89.9859
0.407243,90.0404
0.407331,90.0943
0.407421,90.148
0.407512,90.2013
0.407603,90.2537
0.407696,90.306
0.407786,90.3577
0.407875,90.409
0.407968,90.4593
0.408066,90.5089
0.408168,90.5562
0.408273,90.6014
0.408393,90.6417
0.408538,90.67
0.408733,90.6725
0.408996,90.6417
0.409323,90.5817
0.409738,90.4777
0.410272,90.3146
0.410879,90.1163
0.411546,89.8888
0.412279,89.629
0.413088,89.3263
0.413957,88.9943
0.414823,88.6603
0.415651,88.338
0.416437,88.0275
0.417188,87.7286
0.418131,87.3341
0.419496,86.7286
0.421045,86.0333
0.422685,85.2872
0.42444,84.4786
0.426637,83.4552
