"Maximum force",70.1764,"N"
"Gage length ",1.07365,"mm"
"Strain energy",5.4341,"mJ"
"Deformation at maximum force",0.115591,"mm"
"Standard travel","Standard force"
"mm","N"
0,0.221904
7.80821e-006,0.225093
1.2815e-005,0.228221
2.07424e-005,0.231334
2.27541e-005,0.234523
2.77311e-005,0.237682
3.28273e-005,0.240779
3.54797e-005,0.243648
3.83705e-005,0.24641
4.17829e-005,0.248927
4.55976e-005,0.251247
5.00083e-005,0.253291
5.21392e-005,0.255046
5.46724e-005,0.256595
6.05732e-005,0.25793
6.38515e-005,0.259136
6.7398e-005,0.260211
7.09891e-005,0.261264
7.4774e-005,0.262225
7.55414e-005,0.26324
7.67112e-005,0.264064
8.05557e-005,0.264999
8.12821e-005,0.266029
8.20532e-005,0.267043
8.53762e-005,0.268218
8.60132e-005,0.269294
8.67695e-005,0.270316
8.75778e-005,0.271308
8.85166e-005,0.272243
8.95374e-005,0.273139
9.04091e-005,0.274101
9.16608e-005,0.274886
9.27188e-005,0.275764
9.0871e-005,0.276641
9.21376e-005,0.277416
9.33371e-005,0.278224
9.19439e-005,0.278888
9.35011e-005,0.279525
9.49688e-005,0.280204
9.37842e-005,0.280769
9.28082e-005,0.281232
9.47155e-005,0.281701
9.71742e-005,0.281914
9.68352e-005,0.282079
9.67514e-005,0.282118
9.9821e-005,0.28204
9.99216e-005,0.281993
0.000102827,0.281993
0.000102763,0.282024
0.000105385,0.282157
0.000104595,0.282533
0.000103984,0.282823
0.000105847,0.283315
0.000104812,0.283811
0.000103441,0.284459
0.00010195,0.285165
0.000100311,0.285939
9.89255e-005,0.286599
0.00010052,0.287217
9.938e-005,0.287759
9.87207e-005,0.288072
9.82904e-005,0.288277
0.000100824,0.288448
0.0001006,0.288558
0.000100616,0.288551
0.000100699,0.288512
0.000101079,0.288332
0.000101459,0.288152
0.000101936,0.287924
0.00010245,0.287682
0.000102716,0.287556
0.000102733,0.287548
0.000102683,0.287571
0.000102502,0.287657
0.000101991,0.287901
0.000101429,0.288166
0.000100568,0.288574
9.98417e-005,0.288919
9.89477e-005,0.289341
9.81058e-005,0.289741
9.72936e-005,0.290124
9.66007e-005,0.290454
9.58743e-005,0.290798
9.51292e-005,0.291151
9.46654e-005,0.291371
9.44177e-005,0.291489
9.4549e-005,0.291427
9.44177e-005,0.291489
9.44992e-005,0.29145
9.44172e-005,0.291489
9.45979e-005,0.291403
9.47469e-005,0.291333
9.51921e-005,0.291121
9.5736e-005,0.290863
9.62836e-005,0.290604
9.66804e-005,0.290416
9.69784e-005,0.290275
9.72764e-005,0.290134
9.73099e-005,0.290118
9.72443e-005,0.290149
9.68811e-005,0.290321
9.65346e-005,0.290486
9.6054e-005,0.290713
9.5376e-005,0.291033
9.45826e-005,0.291409
9.37406e-005,0.29181
9.28987e-005,0.292208
9.21052e-005,0.292586
9.14943e-005,0.292876
9.09318e-005,0.293141
9.07967e-005,0.293205
9.06645e-005,0.293267
9.08619e-005,0.293174
9.11581e-005,0.293033
9.16386e-005,0.292806
9.21155e-005,0.292579
9.27115e-005,0.292296
9.3356e-005,0.291991
9.41011e-005,0.291638
9.48126e-005,0.291303
9.51441e-005,0.291144
9.54738e-005,0.290988
9.54091e-005,0.291019
9.52601e-005,0.291089
9.47162e-005,0.291347
9.43027e-005,0.291543
9.36433e-005,0.291856
9.30622e-005,0.292131
9.22687e-005,0.292507
9.15087e-005,0.292867
9.08307e-005,0.293187
9.02533e-005,0.293462
8.99218e-005,0.293619
8.95082e-005,0.293816
8.93415e-005,0.293894
8.93414e-005,0.293894
8.96375e-005,0.293754
8.9902e-005,0.293628
9.01833e-005,0.293496
9.058e-005,0.293307
9.096e-005,0.293127
9.12413e-005,0.292994
9.15728e-005,0.292837
9.21353e-005,0.292572
9.2547e-005,0.292375
9.28115e-005,0.292249
9.27309e-005,0.292288
9.28129e-005,0.292249
9.26816e-005,0.292312
9.24338e-005,0.292429
9.18713e-005,0.292694
9.14578e-005,0.292891
9.09288e-005,0.293141
9.0303e-005,0.293439
8.98075e-005,0.293674
8.9096e-005,0.29401
8.86005e-005,0.294247
8.80529e-005,0.294504
8.77213e-005,0.294661
8.75565e-005,0.294741
8.76715e-005,0.294686
8.79509e-005,0.294553
8.84464e-005,0.294318
8.88617e-005,0.294122
8.93386e-005,0.293895
8.99011e-005,0.293628
9.04487e-005,0.293371
9.10932e-005,0.293066
9.1801e-005,0.292728
9.23635e-005,0.292461
9.27789e-005,0.292266
9.27966e-005,0.292257
9.25488e-005,0.292374
9.22024e-005,0.292538
9.1625e-005,0.292813
9.09321e-005,0.293141
9.0269e-005,0.293454
8.94755e-005,0.293831
8.87155e-005,0.294192
8.78215e-005,0.294613
8.70801e-005,0.294966
8.635e-005,0.295312
8.61674e-005,0.295398
8.61836e-005,0.295391
8.6463e-005,0.295258
8.69585e-005,0.295023
8.74875e-005,0.294773
8.8117e-005,0.294475
8.87764e-005,0.294163
8.94209e-005,0.293855
8.99834e-005,0.29359
9.06949e-005,0.293253
9.10935e-005,0.293064
9.14903e-005,0.292876
9.17213e-005,0.292766
9.15899e-005,0.292829
9.13916e-005,0.292923
9.08812e-005,0.293165
9.03336e-005,0.293422
8.97748e-005,0.29369
8.93091e-005,0.29391
8.86982e-005,0.2942
8.81878e-005,0.294442
8.77222e-005,0.294661
8.71261e-005,0.294944
8.65822e-005,0.295201
8.60681e-005,0.295445
8.59857e-005,0.295485
8.61999e-005,0.295383
8.65296e-005,0.295227
8.68444e-005,0.295078
8.72747e-005,0.294874
8.77031e-005,0.294671
8.81166e-005,0.294474
8.8612e-005,0.29424
8.92751e-005,0.293927
8.98675e-005,0.293645
9.03964e-005,0.293395
9.06963e-005,0.293253
9.08621e-005,0.293174
9.08459e-005,0.293181
9.0615e-005,0.293291
9.01847e-005,0.293494
8.98215e-005,0.293667
8.94583e-005,0.293839
8.89945e-005,0.294059
8.8566e-005,0.294262
8.7888e-005,0.294582
8.73255e-005,0.294849
8.67965e-005,0.295099
8.64817e-005,0.295249
8.63327e-005,0.29532
8.62666e-005,0.295351
8.63979e-005,0.295289
8.65795e-005,0.295203
8.69111e-005,0.295047
8.72575e-005,0.294882
8.7835e-005,0.294609
8.82485e-005,0.294412
8.88929e-005,0.294106
8.9407e-005,0.293863
8.9869e-005,0.293644
9.0398e-005,0.293394
9.07779e-005,0.293213
9.10275e-005,0.293096
9.10277e-005,0.293095
9.07799e-005,0.293213
9.02509e-005,0.293462
8.97741e-005,0.29369
8.9193e-005,0.293963
8.86006e-005,0.294245
8.79375e-005,0.29456
8.71776e-005,0.294921
8.64847e-005,0.295249
8.59706e-005,0.295492
8.5639e-005,0.295649
8.549e-005,0.29572
8.55222e-005,0.295704
8.59021e-005,0.295524
8.64311e-005,0.295274
8.6975e-005,0.295015
8.75711e-005,0.294734
8.81969e-005,0.294435
8.87445e-005,0.294178
8.924e-005,0.293942
8.97206e-005,0.293715
9.01005e-005,0.293535
9.04973e-005,0.293347
9.06472e-005,0.293276
9.03846e-005,0.293401
9.0135e-005,0.293518
8.95576e-005,0.293791
8.90938e-005,0.294011
8.85015e-005,0.294293
8.80358e-005,0.294513
8.74584e-005,0.294787
8.69629e-005,0.295022
8.63669e-005,0.295304
8.58565e-005,0.295547
8.56553e-005,0.295641
8.53741e-005,0.295774
8.55054e-005,0.295712
8.57373e-005,0.295603
8.61489e-005,0.295407
8.65457e-005,0.295219
8.69927e-005,0.295008
8.74696e-005,0.29478
8.80991e-005,0.294482
8.86281e-005,0.294232
8.91236e-005,0.293997
8.97681e-005,0.293692
8.722e-005,0.293527
8.74099e-005,0.293432
8.7559e-005,0.293362
8.74765e-005,0.293401
8.71971e-005,0.293533
8.68004e-005,0.293721
8.61224e-005,0.294042
8.55599e-005,0.294309
8.49974e-005,0.294576
8.43715e-005,0.294873
8.3809e-005,0.295138
8.328e-005,0.29539
8.26989e-005,0.295665
8.23524e-005,0.295829
8.23184e-005,0.295845
8.2236e-005,0.295884
8.27128e-005,0.295657
8.3145e-005,0.295454
8.37373e-005,0.295172
8.42849e-005,0.294914
8.48474e-005,0.294647
8.54397e-005,0.294365
8.61177e-005,0.294045
8.67138e-005,0.293762
8.70621e-005,0.293597
8.75911e-005,0.293348
8.75427e-005,0.293369
8.74931e-005,0.293393
8.71299e-005,0.293565
8.67499e-005,0.293745
8.61725e-005,0.294019
8.53603e-005,0.294403
8.4552e-005,0.294786
8.39559e-005,0.295068
8.07224e-005,0.295226
8.03722e-005,0.295391
8.01729e-005,0.295485
8.0008e-005,0.295563
7.9974e-005,0.295579
8.00402e-005,0.295548
8.03698e-005,0.295391
8.08336e-005,0.295172
8.14595e-005,0.294874
8.20071e-005,0.294617
8.25845e-005,0.294342
8.29161e-005,0.294185
8.32458e-005,0.294028
8.34786e-005,0.293918
8.37915e-005,0.293769
8.40896e-005,0.293628
8.4354e-005,0.293503
8.45031e-005,0.293432
8.43559e-005,0.293502
8.40747e-005,0.293635
8.35978e-005,0.293863
8.31173e-005,0.29409
8.25063e-005,0.29438
8.18432e-005,0.294693
8.13477e-005,0.294928
8.07703e-005,0.295201
8.03549e-005,0.295398
7.99079e-005,0.29561
7.9595e-005,0.295759
7.93137e-005,0.295891
7.93952e-005,0.295853
7.96597e-005,0.295728
8.01063e-005,0.295516
8.08663e-005,0.295158
8.14772e-005,0.294868
8.22856e-005,0.294482
8.29152e-005,0.294185
8.35932e-005,0.293864
8.39415e-005,0.293699
8.4355e-005,0.293503
8.4586e-005,0.293393
8.47182e-005,0.29333
8.46363e-005,0.293369
8.42246e-005,0.293565
8.36807e-005,0.293822
8.29357e-005,0.294175
8.21086e-005,0.294568
8.12816e-005,0.294959
8.07191e-005,0.295226
8.02721e-005,0.295438
7.97617e-005,0.29568
7.94786e-005,0.295814
7.93128e-005,0.295892
7.93127e-005,0.295892
7.93623e-005,0.295869
7.9692e-005,0.295712
8.02359e-005,0.295455
8.09475e-005,0.295117
8.151e-005,0.29485
8.20539e-005,0.294593
8.26834e-005,0.294295
8.30653e-005,0.294114
8.33782e-005,0.293965
8.35775e-005,0.293871
8.36772e-005,0.293824
8.37433e-005,0.293793
8.36278e-005,0.293847
8.33968e-005,0.293957
8.31649e-005,0.294067
8.26359e-005,0.294316
8.2025e-005,0.294606
8.15146e-005,0.29485
8.10192e-005,0.295085
8.05386e-005,0.295312
8.02387e-005,0.295453
7.99742e-005,0.295578
7.97926e-005,0.295665
8.24599e-005,0.295775
8.23519e-005,0.295829
8.25167e-005,0.295751
8.26983e-005,0.295665
8.30616e-005,0.295493
8.35384e-005,0.295266
8.41531e-005,0.294976
8.47305e-005,0.294703
8.51775e-005,0.29449
8.54923e-005,0.294342
8.5822e-005,0.294184
8.612e-005,0.294044
8.61866e-005,0.294012
8.62858e-005,0.293965
8.62038e-005,0.294004
8.61209e-005,0.294043
8.56925e-005,0.294246
8.49475e-005,0.294599
8.42211e-005,0.294943
8.37107e-005,0.295187
8.29805e-005,0.29553
8.2567e-005,0.295727
8.22858e-005,0.295861
8.21042e-005,0.295947
8.17894e-005,0.296096
8.15416e-005,0.296213
8.15578e-005,0.296206
8.19043e-005,0.296042
8.23345e-005,0.295838
8.283e-005,0.295603
8.37203e-005,0.29518
8.42829e-005,0.294914
8.48789e-005,0.294632
8.53092e-005,0.294428
8.57227e-005,0.294232
8.59388e-005,0.29413
8.6071e-005,0.294067
8.61534e-005,0.294028
8.62035e-005,0.294004
8.60554e-005,0.294074
8.56587e-005,0.294262
8.52116e-005,0.294474
8.44703e-005,0.294827
8.37737e-005,0.295155
8.31962e-005,0.295429
8.27995e-005,0.295617
8.2304e-005,0.295853
8.2087e-005,0.295955
8.17574e-005,0.296111
8.15422e-005,0.296213
8.14756e-005,0.296245
8.15248e-005,0.296221
8.18544e-005,0.296065
8.24319e-005,0.295792
8.32253e-005,0.295415
8.39704e-005,0.295064
8.46968e-005,0.294718
8.51923e-005,0.294483
8.57213e-005,0.294233
8.61199e-005,0.294044
8.64179e-005,0.293903
8.64845e-005,0.293871
8.65506e-005,0.29384
8.62377e-005,0.293988
8.57907e-005,0.294199
8.52617e-005,0.294449
8.47178e-005,0.294708
8.39914e-005,0.295054
8.32612e-005,0.295397
8.26838e-005,0.295672
8.23019e-005,0.295853
8.21697e-005,0.295916
8.18903e-005,0.296048
8.19215e-005,0.296033
8.1938e-005,0.296025
8.20535e-005,0.295971
8.23664e-005,0.295822
8.27967e-005,0.295619
8.33406e-005,0.295361
8.41006e-005,0.295001
8.47152e-005,0.294711
8.50784e-005,0.294537
8.56074e-005,0.294287
8.59874e-005,0.294106
8.6319e-005,0.29395
8.64512e-005,0.293887
8.6237e-005,0.293988
8.61048e-005,0.294051
8.58235e-005,0.294183
8.53616e-005,0.294403
8.47171e-005,0.294708
8.42533e-005,0.294928
8.35604e-005,0.295256
8.28675e-005,0.295586
8.22863e-005,0.295859
8.20544e-005,0.29597
8.20868e-005,0.295955
8.2054e-005,0.295971
8.20209e-005,0.295986
8.19713e-005,0.29601
8.21855e-005,0.295908
8.24174e-005,0.295798
8.28458e-005,0.295595
8.33413e-005,0.29536
8.40342e-005,0.295032
8.46973e-005,0.294719
8.52263e-005,0.294467
8.55746e-005,0.294302
8.58726e-005,0.294161
8.6152e-005,0.294028
8.62035e-005,0.294004
8.62859e-005,0.293965
8.61211e-005,0.294043
8.58398e-005,0.294176
8.5214e-005,0.294473
8.45695e-005,0.294778
8.3776e-005,0.295154
8.30645e-005,0.295492
8.25019e-005,0.295759
8.20717e-005,0.295962
8.18891e-005,0.296049
8.19711e-005,0.29601
8.20703e-005,0.295963
8.22184e-005,0.295892
8.26486e-005,0.295689
8.29131e-005,0.295563
8.34756e-005,0.295298
8.40046e-005,0.295046
8.4597e-005,0.294764
8.51781e-005,0.294491
8.57369e-005,0.294224
8.31888e-005,0.294059
8.33955e-005,0.293957
8.34789e-005,0.293918
8.33308e-005,0.293988
8.31325e-005,0.294082
8.29341e-005,0.294176
8.54673e-005,0.294349
8.46365e-005,0.294747
8.6298e-005,0.295335
8.77658e-005,0.296018
9.14762e-005,0.297009
9.79433e-005,0.298077
0.000107182,0.299199
0.000116123,0.300458
0.000127924,0.301747
0.000142528,0.303105
0.000159813,0.304532
0.000177098,0.30602
0.000194145,0.307538
0.000214172,0.30911
0.000231338,0.310605
0.000254465,0.312055
0.000274254,0.313657
0.000293923,0.315343
0.000313235,0.317227
0.000334574,0.319486
0.000355435,0.322019
0.000375582,0.324872
0.000394774,0.328183
0.000415398,0.33215
0.000434829,0.336697
0.000452591,0.342099
0.000471545,0.348264
0.000491692,0.355222
0.000507427,0.362943
0.000524593,0.371304
0.000540329,0.380399
0.000554873,0.390042
0.000571323,0.400113
0.000587178,0.41055
0.000599397,0.421231
0.000616921,0.432218
0.000634206,0.443326
0.000653637,0.454739
0.000670088,0.466275
0.0006894,0.47775
0.000708474,0.489346
0.00072719,0.501187
0.00074817,0.513272
0.000768674,0.525601
0.000788582,0.538175
0.000810636,0.551175
0.000832213,0.564359
0.000853075,0.577908
0.00087334,0.591702
0.000892533,0.605985
0.000913871,0.620694
0.000934494,0.635709
0.000957025,0.651212
0.00097586,0.667081
0.000997079,0.683194
0.00101746,0.699674
0.00104011,0.716519
0.00106217,0.733609
0.00108661,0.750943
0.00111021,0.768643
0.00113322,0.78671
0.00115563,0.80502
0.00118054,0.823575
0.00120462,0.842374
0.00122811,0.861539
0.00125421,0.880826
0.00127686,0.900479
0.00130178,0.920255
0.00132312,0.940518
0.0013466,0.961026
0.00136961,0.981778
0.00139488,1.0029
0.00141658,1.02426
0.00144078,1.04586
0.00146438,1.06772
0.00149037,1.08993
0.00151552,1.11239
0.00153996,1.13522
0.0015638,1.15841
0.00159026,1.18173
0.00161876,1.20529
0.00164379,1.22934
0.00167109,1.25351
0.00169791,1.27804
0.00172497,1.30246
0.0017543,1.32699
0.00178303,1.35202
0.00181426,1.37704
0.00184203,1.40255
0.00186898,1.42831
0.00190116,1.45443
0.00193013,1.48068
0.00196422,1.50717
0.00199188,1.53402
0.00202097,1.56161
0.00205244,1.58932
0.00207747,1.6174
0.00210787,1.64572
0.00213505,1.67416
0.0021645,1.70285
0.0021937,1.73178
0.00222219,1.76095
0.00225033,1.79037
0.00228061,1.82003
0.00230755,1.84994
0.00233663,1.88022
0.00236536,1.91073
0.0023966,1.94137
0.00242997,1.97238
0.00246013,2.00351
0.0024928,2.03476
0.00252522,2.06625
0.00255717,2.09799
0.00259198,2.12973
0.00262631,2.16171
0.00266041,2.19369
0.00269092,2.22592
0.00272693,2.25863
0.00275637,2.29159
0.00279094,2.32455
0.0028217,2.35824
0.0028546,2.39218
0.0028838,2.4266
0.00291814,2.46151
0.00294865,2.49643
0.00298442,2.53183
0.00301946,2.56772
0.00305356,2.60385
0.00308694,2.64023
0.00312246,2.67709
0.00315489,2.7142
0.00319232,2.75155
0.00322951,2.78891
0.00326337,2.82675
0.00329961,2.86459
0.00333585,2.90243
0.00337161,2.94076
0.00340713,2.97885
0.00343956,3.01718
0.00347461,3.05575
0.00350942,3.09433
0.00354375,3.13315
0.00358023,3.17245
0.00361575,3.212
0.0036508,3.2518
0.00368489,3.29208
0.00372113,3.33285
0.00375666,3.37387
0.0037917,3.41513
0.00382913,3.45663
0.00386895,3.49838
0.00390543,3.54037
0.00394167,3.58236
0.00397743,3.6246
0.00401296,3.66708
0.00405039,3.70981
0.00408448,3.75277
0.00412096,3.79623
0.00415958,3.83993
0.00420011,3.88412
0.00423969,3.92856
0.00427855,3.97348
0.00431694,4.01889
0.00436081,4.06405
0.0044011,4.10971
0.00444116,4.15536
0.00448073,4.2015
0.00451983,4.24765
0.00455822,4.29428
0.00459613,4.34115
0.00463356,4.38803
0.00467361,4.43515
0.00471295,4.48251
0.00475205,4.53012
0.00479044,4.57821
0.00482859,4.62631
0.00486912,4.67441
0.00490965,4.72274
0.0049528,4.77108
0.00499286,4.81967
0.00503553,4.86825
0.00507773,4.91708
0.00511659,4.96615
0.00515784,5.01571
0.00519837,5.06527
0.00524391,5.11532
0.00528563,5.16586
0.00532903,5.21689
0.00536836,5.2684
0.00541247,5.3204
0.0054561,5.37289
0.00549902,5.42538
0.0055417,5.47836
0.00558676,5.53134
0.00562586,5.58432
0.00566806,5.6373
0.00570763,5.69027
0.00575031,5.74301
0.0057906,5.7955
0.00583066,5.84823
0.00587047,5.90097
0.00591315,5.9537
0.00595535,6.00692
0.00600017,6.0599
0.00604166,6.11337
0.00608577,6.16659
0.00612964,6.2203
0.00617303,6.27401
0.00621618,6.32797
0.00625624,6.38217
0.00629867,6.43637
0.00634016,6.49106
0.00638117,6.54599
0.00642408,6.60141
0.00646628,6.65732
0.00651301,6.71347
0.00655617,6.77035
0.00660123,6.82724
0.00664557,6.88485
0.00668634,6.94272
0.0067264,7.00082
0.00676645,7.05917
0.00680293,7.11752
0.00684465,7.17611
0.0068828,7.2352
0.00692023,7.29452
0.00695719,7.35434
0.00699939,7.41415
0.00703873,7.47421
0.00708045,7.53427
0.00711883,7.59457
0.00715674,7.65512
0.00719441,7.71566
0.00723471,7.77646
0.00727166,7.83749
0.00731076,7.89877
0.00734915,7.96054
0.00738896,8.02279
0.00742782,8.08578
0.00746859,8.14926
0.00751127,8.21274
0.00755299,8.27719
0.00759138,8.34164
0.00763167,8.40658
0.00766863,8.47152
0.00770487,8.53695
0.00774421,8.60238
0.00778045,8.66781
0.00781955,8.73324
0.00786127,8.79916
0.00790252,8.86459
0.0079409,8.93051
0.00798453,8.99691
0.0080284,9.06283
0.00806631,9.12875
0.00811018,9.19467
0.00815095,9.26108
0.00819124,9.32699
0.00823416,9.3934
0.00827946,9.46029
0.00832404,9.52719
0.00836815,9.59457
0.00841464,9.66195
0.00846042,9.72983
0.00850858,9.79818
0.0085534,9.86606
0.00859774,9.9349
0.00864138,10.0038
0.00868167,10.0726
0.00872434,10.1419
0.00876702,10.2113
0.00880922,10.2806
0.00885404,10.3504
0.00890149,10.4203
0.00894846,10.4906
0.00899209,10.5604
0.00903262,10.6307
0.00907577,10.7015
0.00911511,10.7723
0.00916017,10.8431
0.00920452,10.9144
0.00925125,10.9857
0.00929726,11.058
0.00934566,11.1297
0.00939335,11.2025
0.00944365,11.2747
0.00948752,11.348
0.00953163,11.4207
0.00957526,11.4935
0.00962128,11.5667
0.00966705,11.64
0.00971235,11.7137
0.00975717,11.7874
0.00980462,11.8617
0.00985445,11.9354
0.0099007,12.0101
0.00994648,12.0848
0.00998844,12.16
0.0100352,12.2357
0.0100836,12.3119
0.010131,12.3885
0.010178,12.4652
0.0102307,12.5423
0.0102824,12.62
0.0103341,12.6971
0.0103823,12.7747
0.0104329,12.8529
0.0104772,12.931
0.0105275,13.0091
0.0105749,13.0872
0.0106255,13.1654
0.0106758,13.243
0.0107292,13.3211
0.0107824,13.3993
0.0108351,13.4779
0.0108816,13.5565
0.0109309,13.6346
0.0109834,13.7132
0.0110387,13.7918
0.0110971,13.8704
0.0111526,13.9485
0.0112141,14.0266
0.0112733,14.1048
0.0113322,14.1829
0.0113911,14.261
0.0114476,14.3391
0.011501,14.4168
0.0115544,14.4949
0.0116109,14.573
0.0116676,14.6507
0.0117248,14.7283
0.0117844,14.8059
0.0118405,14.8841
0.0118934,14.9622
0.0119456,15.0408
0.0120002,15.1199
0.0120517,15.1985
0.0121092,15.2776
0.0121638,15.3562
0.0122241,15.4353
0.0122818,15.5139
0.0123369,15.5926
0.0123922,15.6712
0.0124482,15.7488
0.0125052,15.8269
0.0125603,15.9041
0.0126206,15.9803
0.0126854,16.055
0.0127493,16.1297
0.012817,16.2039
0.0128824,16.2776
0.0129482,16.3509
0.0130111,16.4241
0.0130807,16.4973
0.0131499,16.5706
0.0132214,16.6443
0.0132915,16.7185
0.0133592,16.7937
0.0134283,16.8699
0.0134927,16.9466
0.0135528,17.0247
0.0136143,17.1028
0.013672,17.1814
0.0137311,17.261
0.0137898,17.3406
0.0138503,17.4207
0.0139102,17.5013
0.0139662,17.5818
0.0140187,17.6634
0.0140737,17.7444
0.0141291,17.826
0.0141877,17.907
0.014253,17.9876
0.0143193,18.0681
0.0143856,18.1482
0.0144566,18.2278
0.014522,18.3069
0.0145921,18.3855
0.014666,18.4632
0.0147351,18.5408
0.0148071,18.6184
0.0148791,18.6961
0.0149478,18.7737
0.0150184,18.8518
0.0150885,18.9305
0.0151547,19.0091
0.0152196,19.0887
0.0152859,19.1692
0.0153479,19.2498
0.0154179,19.3313
0.0154852,19.4124
0.0155548,19.4939
0.0156244,19.5755
0.0156931,19.6575
0.0157584,19.7395
0.0158209,19.8216
0.0158867,19.9036
0.0159515,19.9856
0.016014,20.0681
0.0160812,20.1507
0.0161475,20.2337
0.0162128,20.3172
0.0162743,20.4012
0.0163351,20.4856
0.0163971,20.5706
0.0164606,20.6565
0.0165235,20.743
0.0165883,20.8294
0.0166527,20.9163
0.0167228,21.0032
0.0167891,21.0906
0.0168511,21.178
0.0169155,21.2664
0.0169734,21.3553
0.0170337,21.4441
0.0170995,21.5325
0.0171625,21.6219
0.0172244,21.7107
0.017286,21.8006
0.0173434,21.8909
0.0174054,21.9812
0.0174648,22.0725
0.0175263,22.1634
0.0175907,22.2542
0.0176555,22.345
0.0177227,22.4358
0.0177847,22.5266
0.0178472,22.6175
0.017907,22.7078
0.0179671,22.7981
0.0180279,22.888
0.0180889,22.9778
0.0181538,23.0672
0.0182158,23.1565
0.0182773,23.2464
0.0183381,23.3362
0.0183946,23.427
0.0184528,23.5183
0.01851,23.6096
0.0185696,23.7014
0.0186316,23.7937
0.0186931,23.886
0.0187546,23.9788
0.0188092,24.0716
0.0188638,24.1648
0.0189155,24.2576
0.0189711,24.3499
0.0190274,24.4422
0.0190867,24.534
0.0191423,24.6267
0.0191966,24.7195
0.0192469,24.8133
0.0192961,24.9075
0.0193464,25.0022
0.0193986,25.0979
0.0194525,25.1941
0.0195075,25.2908
0.0195609,25.3885
0.0196105,25.4871
0.0196589,25.5857
0.0197033,25.6848
0.0197498,25.7845
0.0197989,25.8846
0.019848,25.9842
0.0198966,26.0843
0.0199448,26.1844
0.019992,26.2854
0.020038,26.3865
0.0200797,26.4886
0.020127,26.5906
0.0201768,26.6927
0.0202292,26.7952
0.0202786,26.8977
0.0203298,27.0008
0.0203775,27.1043
0.0204216,27.2078
0.0204686,27.3113
0.0205132,27.4148
0.0205611,27.5179
0.0206117,27.6214
0.0206589,27.7249
0.0207085,27.8284
0.020754,27.9329
0.0207983,28.0379
0.0208444,28.1433
0.0208923,28.2493
0.0209395,28.3557
0.0209886,28.4627
0.0210422,28.5696
0.0210894,28.6775
0.0211324,28.7859
0.0211738,28.8953
0.021218,29.0042
0.0212618,29.1136
0.0213059,29.2229
0.021355,29.3323
0.0213968,29.4431
0.0214368,29.554
0.0214788,29.6658
0.0215253,29.7781
0.0215711,29.8909
0.0216223,30.0037
0.0216726,30.117
0.0217191,30.2303
0.0217649,30.3445
0.0218099,30.4588
0.021855,30.5735
0.0219001,30.6878
0.0219482,30.802
0.0219962,30.9163
0.0220462,31.031
0.0220889,31.1468
0.0221337,31.2625
0.0221833,31.3792
0.0222327,31.4954
0.0222882,31.6121
0.0223433,31.7283
0.0223953,31.845
0.0224439,31.9622
0.0224866,32.0789
0.0225293,32.1961
0.0225757,32.3123
0.0226225,32.429
0.022669,32.5452
0.0227119,32.6624
0.0227534,32.7796
0.0227937,32.8977
0.0228366,33.0159
0.0228847,33.1346
0.02293,33.2532
0.0229782,33.3714
0.0230233,33.49
0.0230652,33.6087
0.0231048,33.7273
0.0231477,33.8455
0.0231885,33.9632
0.0232355,34.0808
0.0232791,34.199
0.0233218,34.3172
0.0233628,34.4363
0.0234026,34.5559
0.0234445,34.6761
0.0234915,34.7967
0.0235406,34.9178
0.0235826,35.0393
0.0236236,35.1609
0.023667,35.2835
0.0237042,35.4055
0.0237476,35.5281
0.0237912,35.6502
0.0238351,35.7718
0.0238785,35.8943
0.0239214,36.0169
0.0239638,36.1394
0.024006,36.262
0.0240573,36.3846
0.0241052,36.5076
0.0241557,36.6306
0.0242053,36.7542
0.0242511,36.8777
0.0242931,37.0022
0.0243377,37.1267
0.0243849,37.2513
0.0244318,37.3758
0.0244745,37.5008
0.0245158,37.6267
0.0245553,37.7537
0.0245932,37.8816
0.0246393,38.0096
0.0246846,38.1375
0.0247289,38.2664
0.0247692,38.3963
0.0248078,38.5262
0.0248455,38.657
0.024886,38.7869
0.0249266,38.9178
0.0249695,39.0486
0.0250114,39.1805
0.0250486,39.3123
0.0250875,39.4451
0.0251337,39.5789
0.025179,39.7127
0.025226,39.8474
0.0252749,39.9822
0.0253192,40.118
0.0253598,40.2537
0.0253993,40.3904
0.0254446,40.5271
0.0254868,40.6638
0.0255286,40.8015
0.0255698,40.9383
0.0256103,41.076
0.0256564,41.2146
0.0257026,41.3513
0.0257548,41.489
0.0258073,41.6267
0.025854,41.7644
0.0258986,41.9012
0.0259441,42.0379
0.0259873,42.1746
0.0260371,42.3103
0.0260836,42.4461
0.026127,42.5828
0.0261723,42.7195
0.0262147,42.8562
0.0262629,42.993
0.0263134,43.1297
0.0263633,43.2674
0.0264033,43.4051
0.0264434,43.5428
0.0264808,43.6805
0.0265221,43.8181
0.0265705,43.9549
0.026616,44.0916
0.0266549,44.2283
0.0266961,44.366
0.02674,44.5027
0.0267834,44.6404
0.0268356,44.7781
0.026884,44.9168
0.0269314,45.0545
0.026975,45.1941
0.0270177,45.3328
0.0270661,45.4724
0.027114,45.6121
0.0271589,45.7517
0.0272025,45.8924
0.0272426,46.033
0.0272883,46.1736
0.0273341,46.3142
0.0273887,46.4549
0.0274373,46.5955
0.0274855,46.7371
0.0275337,46.8777
0.027579,47.0183
0.0276276,47.1599
0.0276762,47.3006
0.0277213,47.4412
0.0277683,47.5828
0.0278143,47.7254
0.0278596,47.867
0.0279127,48.0105
0.0279647,48.1531
0.028016,48.2967
0.0280627,48.4412
0.0281087,48.5867
0.0281569,48.7312
0.0282017,48.8767
0.0282518,49.0222
0.0282942,49.1687
0.0283381,49.3162
0.0283836,49.4646
0.0284313,49.6121
0.0284842,49.7605
0.0285393,49.9099
0.0285901,50.0594
0.0286406,50.2088
0.0286883,50.3582
0.0287384,50.5086
0.0287937,50.659
0.0288402,50.8084
0.0288924,50.9588
0.0289441,51.1092
0.0290047,51.2596
0.0290653,51.4099
0.0291237,51.5603
0.0291792,51.7107
0.0292286,51.8601
0.0292791,52.0105
0.0293306,52.159
0.0293826,52.3084
0.0294343,52.4578
0.0294832,52.6062
0.0295354,52.7556
0.0295881,52.9041
0.0296468,53.0525
0.0297049,53.201
0.0297567,53.3504
0.0298058,53.4988
0.0298547,53.6482
0.0299069,53.7967
0.0299562,53.9461
0.0300049,54.0945
0.0300471,54.2449
0.0300967,54.3943
0.0301455,54.5447
0.0302035,54.6951
0.0302554,54.8455
0.0303067,54.9969
0.0303577,55.1472
0.0304066,55.2976
0.0304619,55.448
0.0305177,55.5974
0.0305702,55.7478
0.0306224,55.8982
0.0306775,56.0486
0.0307347,56.199
0.0307948,56.3494
0.0308548,56.4998
0.0309147,56.6512
0.0309681,56.8025
0.0310241,56.9529
0.0310799,57.1043
0.0311357,57.2556
0.0311879,57.408
0.0312399,57.5594
0.0312952,57.7107
0.0313562,57.8621
0.0314201,58.0135
0.0314809,58.1658
0.0315377,58.3181
0.0315937,58.4705
0.0316485,58.6238
0.0317084,58.7771
0.031767,58.9314
0.0318216,59.0857
0.031881,59.241
0.031942,59.3972
0.0320054,59.5535
0.0320746,59.7097
0.0321344,59.866
0.0321964,60.0222
0.0322594,60.1785
0.0323204,60.3347
0.0323876,60.49
0.0324496,60.6453
0.0325178,60.8006
0.0325903,60.9549
0.0326671,61.1092
0.0327472,61.2625
0.0328225,61.4158
0.0328935,61.5681
0.0329598,61.7195
0.0330333,61.8709
0.033111,62.0222
0.0331806,62.1717
0.0332478,62.3221
0.0333189,62.4715
0.0333961,62.6209
0.0338062,62.6109
0.0379261,60.7984
0.0422291,58.9078
0.0465015,57.0172
0.0508045,55.1266
0.055138,53.2203
0.059502,51.2984
0.0638355,49.3687
0.0680775,47.4156
0.0722279,45.4469
0.0759663,43.6266
0.0759202,43.5897
0.0757333,43.614
0.0755779,43.622
0.0754377,43.6194
0.0753051,43.6118
0.0751792,43.6026
0.0750505,43.593
0.0749198,43.5832
0.0747949,43.5734
0.0746662,43.5638
0.0745403,43.5543
0.0744172,43.5451
0.0742961,43.5362
0.0741774,43.5276
0.0740634,43.5193
0.073948,43.5118
0.0738374,43.5049
0.0737249,43.499
0.0736133,43.494
0.0735022,43.4901
0.0733863,43.4871
0.0732743,43.4849
0.0731613,43.4835
0.0730497,43.4826
0.072941,43.4817
0.0728322,43.4808
0.072724,43.4799
0.0726191,43.4786
0.0725175,43.4772
0.0724188,43.4756
0.0723244,43.4736
0.0722338,43.4709
0.0721475,43.4677
0.072065,43.464
0.071983,43.4601
0.0719077,43.4558
0.0718352,43.4515
0.0717622,43.4475
0.071695,43.4436
0.0716268,43.4399
0.0715581,43.4365
0.0714919,43.4335
0.0714246,43.4309
0.0713588,43.4288
0.0712954,43.4272
0.0712315,43.4259
0.0711695,43.4249
0.0711101,43.4241
0.0710508,43.4233
0.0709976,43.4223
0.0709413,43.4213
0.0708908,43.4205
0.0708431,43.4197
0.070795,43.4191
0.0707497,43.4185
0.0707072,43.4179
0.0706648,43.4173
0.0706283,43.4168
0.070589,43.4161
0.0705584,43.4154
0.0705246,43.4149
0.0704934,43.4145
0.0704651,43.4141
0.0704369,43.4137
0.0704118,43.4132
0.0703865,43.4128
0.0703616,43.4121
0.0703396,43.4115
0.0703203,43.4111
0.0703004,43.4108
0.0702834,43.4106
0.0702665,43.4103
0.0702495,43.4101
0.0702358,43.4097
0.0702249,43.4094
0.0702142,43.4089
0.070203,43.4087
0.0701947,43.4085
0.0701889,43.4085
0.0701803,43.4085
0.0701746,43.4084
0.0701722,43.4081
0.0701668,43.4079
0.0701645,43.4076
0.0701619,43.4075
0.0701619,43.4075
0.0701618,43.4075
0.0701614,43.4077
0.0701613,43.4078
0.0701612,43.4079
0.0701612,43.4079
0.0701609,43.408
0.0701606,43.4081
0.0701655,43.4086
0.0701673,43.4091
0.0701717,43.4098
0.0701761,43.4105
0.0701803,43.4112
0.0701876,43.4119
0.0701976,43.4127
0.0702044,43.4136
0.0702167,43.4147
0.0702258,43.4159
0.0702373,43.4174
0.0702488,43.4189
0.0702633,43.4203
0.0702778,43.4217
0.0702923,43.4231
0.0703096,43.4246
0.0703267,43.4261
0.0703437,43.4277
0.0703632,43.4295
0.0703831,43.4311
0.0704064,43.4325
0.0704301,43.4338
0.0704541,43.4348
0.0704785,43.4356
0.070506,43.4364
0.0705365,43.4371
0.0705671,43.4377
0.0705951,43.4383
0.0706294,43.4385
0.070664,43.4387
0.0706988,43.4387
0.0707338,43.4386
0.0707686,43.4387
0.0708092,43.4388
0.0708466,43.4389
0.070884,43.4391
0.0709246,43.4392
0.0709651,43.4392
0.0710061,43.4391
0.07105,43.4389
0.0710908,43.4389
0.0711344,43.4389
0.071178,43.4388
0.0712214,43.439
0.0712677,43.4391
0.0713113,43.4391
0.0713578,43.439
0.0714043,43.4391
0.0714474,43.4393
0.0714963,43.4396
0.0715416,43.4401
0.0715895,43.4409
0.0716341,43.4417
0.0716816,43.4427
0.0717259,43.4437
0.0717729,43.4449
0.0718191,43.4464
0.0718649,43.4482
0.0719126,43.4505
0.0719567,43.453
0.0720034,43.4558
0.0720494,43.4588
0.0720921,43.462
0.0721376,43.4653
0.0721863,43.4685
0.0722321,43.4716
0.0722814,43.4745
0.0723281,43.4771
0.0723758,43.4794
0.0724299,43.4813
0.0724853,43.4826
0.0725418,43.4834
0.072599,43.4839
0.0726567,43.4841
0.0727201,43.4844
0.0727771,43.4849
0.0728338,43.4856
0.0728958,43.4864
0.0729554,43.4872
0.0730143,43.4883
0.0730727,43.4895
0.0731307,43.491
0.0731848,43.493
0.0732439,43.4952
0.0732995,43.4979
0.073355,43.5006
0.0734098,43.5035
0.0734649,43.5065
0.0735219,43.5098
0.0735755,43.5134
0.073628,43.5175
0.07368,43.5219
0.0737312,43.5266
0.073782,43.5316
0.0738354,43.5366
0.0738857,43.5418
0.0739387,43.5472
0.0739909,43.5528
0.0740428,43.5586
0.0740941,43.5647
0.074148,43.5709
0.0741988,43.5773
0.0742524,43.5837
0.0743061,43.59
0.0743628,43.5963
0.0744167,43.6026
0.0744701,43.6091
0.0745261,43.6157
0.0745822,43.6224
0.0746379,43.6291
0.0746937,43.6359
0.0747464,43.6427
0.0748048,43.6496
0.0748599,43.6568
0.0749169,43.6643
0.0749703,43.6722
0.0750254,43.6806
0.0750766,43.6896
0.0751293,43.6992
0.0751806,43.7095
0.0752304,43.7206
0.0752748,43.7329
0.0753208,43.7471
0.0753615,43.7638
0.0753964,43.7835
0.0754253,43.806
0.0754514,43.8314
0.0754722,43.8593
0.0754879,43.8895
0.0755013,43.9223
0.0755098,43.9577
0.075514,43.9948
0.0755176,44.0338
0.0755225,44.0736
0.0755263,44.1139
0.0755294,44.1544
0.0755347,44.1954
0.0755392,44.2367
0.0755426,44.2787
0.075548,44.3209
0.0755495,44.3637
0.075553,44.4069
0.0755555,44.4506
0.0755601,44.4948
0.0755641,44.5392
0.0755674,44.5839
0.0755726,44.629
0.0755733,44.6749
0.0755785,44.7216
0.0755792,44.7689
0.0755846,44.817
0.0755859,44.8654
0.0755925,44.9142
0.0755951,44.9635
0.0755995,45.0133
0.0755998,45.0636
0.0756048,45.1146
0.0756089,45.1659
0.0756121,45.2177
0.0756148,45.2699
0.0756195,45.3222
0.0756207,45.3749
0.0756237,45.4284
0.0756256,45.4821
0.075629,45.5365
0.0756312,45.5917
0.0756322,45.6474
0.075635,45.7035
0.0756397,45.7601
0.0756462,45.8175
0.0756513,45.8754
0.0756551,45.934
0.0756602,45.9931
0.0756642,46.0529
0.0756675,46.1132
0.075673,46.1737
0.0756807,46.2345
0.075685,46.2955
0.0756887,46.3571
0.0756916,46.4188
0.0756968,46.4809
0.0757012,46.5431
0.0757077,46.6061
0.0757108,46.6691
0.0757156,46.7326
0.0757255,46.7965
0.0757319,46.861
0.0757406,46.9254
0.0757481,46.9909
0.0757547,47.0563
0.0757604,47.1222
0.0757652,47.1886
0.0757723,47.2555
0.075778,47.3229
0.0757828,47.3908
0.0757858,47.4596
0.0757927,47.5294
0.0757976,47.5997
0.0758037,47.6715
0.0758108,47.7438
0.0758164,47.8165
0.0758209,47.8903
0.0758243,47.9645
0.0758299,48.0392
0.0758316,48.1139
0.0758356,48.1891
0.0758387,48.2648
0.0758408,48.341
0.075845,48.4176
0.0758484,48.4948
0.0758537,48.5719
0.075855,48.65
0.0758609,48.7287
0.0758654,48.8078
0.0758689,48.8878
0.0758739,48.9679
0.0758781,49.049
0.0758813,49.13
0.0758838,49.2116
0.075888,49.2941
0.075894,49.3766
0.0758982,49.4601
0.0759039,49.5446
0.0759109,49.6295
0.0759197,49.715
0.0759303,49.8014
0.0759375,49.8873
0.075944,49.9743
0.0759523,50.0617
0.0759567,50.1491
0.0759627,50.2374
0.0759677,50.3263
0.0759717,50.4157
0.0759809,50.505
0.0759896,50.5949
0.0760003,50.6852
0.0760099,50.776
0.0760152,50.8678
0.0760224,50.9596
0.0760254,51.0524
0.0760307,51.1452
0.0760411,51.2384
0.0760506,51.3322
0.0760594,51.4259
0.0760702,51.5206
0.0760865,51.6149
0.0760993,51.7101
0.0761121,51.8048
0.0761249,51.8996
0.0761349,51.9948
0.0761447,52.0895
0.0761551,52.1842
0.0761686,52.2785
0.0761827,52.3727
0.0761995,52.4674
0.0762158,52.5617
0.0762317,52.6564
0.0762473,52.7516
0.0762623,52.8468
0.0762769,52.942
0.0762938,53.0377
0.0763076,53.1334
0.0763266,53.2296
0.0763473,53.3263
0.0763707,53.423
0.0763907,53.5202
0.0764105,53.6173
0.0764301,53.7145
0.0764471,53.8117
0.0764645,53.9083
0.0764854,54.005
0.0765065,54.1017
0.0765312,54.1979
0.0765568,54.2936
0.0765799,54.3888
0.0766067,54.484
0.0766315,54.5788
0.0766598,54.673
0.0766883,54.7677
0.0767229,54.8615
0.0767553,54.9552
0.0767949,55.0485
0.0768351,55.1413
0.07688,55.2335
0.0769234,55.3248
0.0769658,55.4152
0.0770135,55.5045
0.0770643,55.5924
0.0771186,55.6784
0.077177,55.7623
0.0772457,55.8444
0.0773153,55.9245
0.0773907,56.0016
0.0774679,56.0768
0.0775504,56.1491
0.0776429,56.2194
0.0777349,56.2887
0.0778336,56.3576
0.0779295,56.4264
0.0780272,56.4957
0.0781197,56.5661
0.078207,56.6378
0.0782924,56.7116
0.0783691,56.7882
0.0784373,56.8673
0.0785003,56.9494
0.0785646,57.0333
0.0786219,57.1198
0.0786729,57.2072
0.0787206,57.2965
0.0787675,57.3873
0.0788083,57.4801
0.0788488,57.5744
0.078887,57.6696
0.0789316,57.7658
0.0789711,57.8634
0.0790119,57.9616
0.0790515,58.0602
0.0790865,58.1598
0.0791206,58.2599
0.0791564,58.3605
0.0791852,58.4616
0.079222,58.5631
0.0792584,58.6652
0.0792944,58.7667
0.0793297,58.8693
0.0793617,58.9718
0.079395,59.0748
0.0794301,59.1784
0.0794644,59.2829
0.0795021,59.3869
0.0795469,59.4899
0.0796089,59.5861
0.0798035,59.6157
0.0801334,59.5811
0.0805225,59.5171
0.0809517,59.4351
0.0814018,59.3403
0.0818787,59.2354
0.0823784,59.1211
0.0828857,58.9986
0.0834007,58.8687
0.0839004,58.7378
0.0842686,58.6665
0.0845117,58.6533
0.0847034,58.6629
0.0848722,58.6839
0.0850277,58.7113
0.0851698,58.7435
0.0853014,58.7797
0.0854254,58.8195
0.0855398,58.8627
0.0856452,58.9086
0.0857449,58.9574
0.085834,59.0082
0.0859241,59.0617
0.0860066,59.1173
0.0860825,59.1747
0.0861597,59.2328
0.0862346,59.2907
0.0867762,59.1237
0.087791,58.7291
0.0888286,58.3209
0.0898967,57.8991
0.0909953,57.4616
0.0921397,57.0045
0.0933223,56.526
0.0945353,56.0299
0.0957408,55.5182
0.0969386,54.9948
0.0976558,54.6881
0.0979037,54.6012
0.0981574,54.507
0.0984244,54.4079
0.0986781,54.3112
0.0989137,54.2233
0.0991177,54.1471
0.0993018,54.0817
0.0994706,54.0228
0.0996318,53.9679
0.0997815,53.9149
0.0999303,53.8639
0.10005,53.8246
0.100149,53.7964
0.100235,53.7733
0.100314,53.7532
0.100389,53.7354
0.10046,53.7194
0.100527,53.7052
0.100588,53.6925
0.100649,53.6813
0.10071,53.6716
0.100761,53.6636
0.100815,53.6571
0.100866,53.6522
0.100911,53.6489
0.100953,53.6467
0.100996,53.6454
0.101035,53.6449
0.101076,53.6449
0.101118,53.6455
0.101156,53.6468
0.101196,53.6489
0.101233,53.6516
0.101273,53.6551
0.101308,53.6593
0.101341,53.6642
0.101376,53.6699
0.101409,53.6763
0.10144,53.6836
0.101473,53.6918
0.101504,53.7008
0.101533,53.7104
0.101558,53.721
0.101584,53.7322
0.101612,53.744
0.101639,53.7563
0.101665,53.7692
0.101689,53.7827
0.101712,53.797
0.101736,53.8119
0.101759,53.8273
0.101781,53.8432
0.101803,53.8595
0.101826,53.8763
0.101848,53.8937
0.101869,53.9118
0.101889,53.9303
0.10191,53.9496
0.10193,53.9693
0.101952,53.9894
0.101974,54.0101
0.101994,54.0313
0.102013,54.0529
0.102034,54.075
0.102054,54.0977
0.102072,54.121
0.102093,54.1447
0.102116,54.1688
0.102139,54.1928
0.102161,54.217
0.102184,54.2409
0.102211,54.2643
0.10224,54.287
0.102268,54.3088
0.102303,54.3294
0.102341,54.3489
0.102382,54.3674
0.102422,54.3846
0.102466,54.4009
0.102513,54.4165
0.10256,54.4314
0.102608,54.4462
0.102659,54.4609
0.10271,54.4758
0.10276,54.4908
0.102807,54.5061
0.102855,54.5217
0.102906,54.5378
0.102954,54.5543
0.103002,54.5715
0.103053,54.5892
0.103099,54.6075
0.103145,54.6263
0.103189,54.6457
0.103235,54.6655
0.103281,54.6857
0.103326,54.7059
0.103373,54.7266
0.103417,54.7474
0.103461,54.7684
0.103507,54.7897
0.10355,54.8109
0.103596,54.8324
0.103639,54.8537
0.103687,54.8755
0.103731,54.8976
0.103775,54.9202
0.10382,54.9434
0.10386,54.9672
0.103903,54.9916
0.103946,55.0168
0.103989,55.0425
0.10403,55.069
0.104072,55.0966
0.104109,55.125
0.104147,55.1544
0.104183,55.1847
0.104217,55.2159
0.104254,55.2473
0.104289,55.2793
0.104324,55.3118
0.104357,55.3448
0.104389,55.3784
0.104421,55.4121
0.104452,55.4466
0.104482,55.481
0.104511,55.5159
0.104543,55.5508
0.104574,55.5865
0.104607,55.6226
0.104636,55.6592
0.104666,55.6966
0.104696,55.7342
0.104727,55.7725
0.104758,55.8108
0.104788,55.8496
0.10482,55.8889
0.104849,55.9283
0.10488,55.968
0.10491,56.0083
0.104937,56.0486
0.104966,56.0891
0.105001,56.1299
0.105027,56.1709
0.105058,56.2122
0.105084,56.2539
0.10511,56.2962
0.105141,56.3389
0.105171,56.3821
0.105202,56.4258
0.105233,56.4698
0.105267,56.5142
0.105296,56.5591
0.105327,56.6043
0.105357,56.6502
0.105387,56.6961
0.105419,56.7422
0.105448,56.7886
0.105477,56.8352
0.105508,56.8819
0.105539,56.9287
0.105569,56.9756
0.1056,57.0227
0.105629,57.0703
0.105657,57.1184
0.105688,57.1668
0.105718,57.2154
0.105753,57.2644
0.105784,57.314
0.105815,57.3636
0.105848,57.4136
0.10588,57.4641
0.105909,57.5149
0.10594,57.5657
0.105974,57.6167
0.106004,57.668
0.106037,57.7195
0.10607,57.7713
0.106104,57.8235
0.106141,57.876
0.106176,57.929
0.106211,57.9825
0.106248,58.0362
0.106285,58.0899
0.106321,58.1438
0.106361,58.1978
0.106397,58.2517
0.106436,58.3059
0.106475,58.3599
0.106512,58.4138
0.106549,58.4676
0.106589,58.5213
0.106629,58.575
0.106669,58.6284
0.106712,58.6822
0.106755,58.7356
0.106798,58.7893
0.106844,58.843
0.106887,58.897
0.106929,58.9507
0.106974,59.0049
0.107016,59.0591
0.10706,59.1133
0.107104,59.1678
0.107151,59.2224
0.107197,59.2776
0.107245,59.333
0.107293,59.3885
0.107343,59.4441
0.107391,59.4998
0.107444,59.5555
0.107492,59.6109
0.107542,59.6665
0.10759,59.7224
0.107636,59.7784
0.10768,59.8345
0.107726,59.8911
0.107768,59.9478
0.107815,60.0052
0.107858,60.063
0.107903,60.1214
0.107946,60.1805
0.107989,60.24
0.10803,60.2998
0.108071,60.3601
0.108108,60.4209
0.108147,60.4822
0.108185,60.5437
0.108225,60.606
0.108263,60.6685
0.1083,60.7325
0.108342,60.7964
0.108383,60.8609
0.108421,60.9253
0.108461,60.9898
0.108498,61.0547
0.108532,61.1197
0.10857,61.1846
0.108607,61.2495
0.108644,61.3145
0.108681,61.3794
0.108718,61.4444
0.108755,61.5093
0.108795,61.5742
0.108834,61.6392
0.108873,61.7046
0.108918,61.7701
0.108957,61.8355
0.108992,61.9014
0.109031,61.9668
0.109072,62.0327
0.109112,62.0992
0.109154,62.1656
0.109193,62.2325
0.109236,62.2998
0.109281,62.3682
0.109326,62.4366
0.109367,62.5049
0.109409,62.5742
0.109448,62.6436
0.109487,62.7139
0.109528,62.7837
0.109567,62.8545
0.109603,62.9258
0.10964,62.9976
0.10968,63.0699
0.109722,63.1421
0.10976,63.2149
0.109797,63.2881
0.109834,63.3618
0.109869,63.4356
0.109904,63.5103
0.109938,63.585
0.109975,63.6597
0.110017,63.7349
0.110055,63.8106
0.110093,63.8863
0.110134,63.9624
0.110171,64.0381
0.110211,64.1143
0.110251,64.1905
0.110292,64.2661
0.110332,64.3418
0.110371,64.4175
0.110413,64.4927
0.110459,64.5674
0.110505,64.6421
0.110552,64.7163
0.110603,64.7901
0.110648,64.8633
0.110697,64.9366
0.110747,65.0093
0.110796,65.0826
0.110845,65.1558
0.110899,65.229
0.110956,65.3028
0.111009,65.377
0.111063,65.4517
0.111117,65.5269
0.111167,65.6021
0.11122,65.6778
0.111267,65.7534
0.111316,65.8291
0.111368,65.9053
0.11142,65.9815
0.111471,66.0576
0.111525,66.1338
0.111577,66.21
0.111628,66.2867
0.111681,66.3633
0.111732,66.4409
0.11178,66.5191
0.111832,66.5977
0.111883,66.6773
0.111936,66.7569
0.111991,66.8369
0.112045,66.917
0.112099,66.9976
0.11215,67.0786
0.112203,67.1597
0.112253,67.2408
0.112304,67.3218
0.112358,67.4019
0.112413,67.4825
0.112471,67.5625
0.112529,67.6421
0.112586,67.7227
0.112637,67.8033
0.112694,67.8843
0.11275,67.9654
0.112808,68.0464
0.11287,68.1275
0.112931,68.2085
0.112994,68.2896
0.113059,68.3701
0.113122,68.4502
0.113181,68.5303
0.11324,68.6099
0.1133,68.689
0.113359,68.7671
0.113421,68.8452
0.113488,68.9224
0.113557,68.9986
0.113623,69.0747
0.113691,69.1504
0.113756,69.2251
0.113828,69.2998
0.113899,69.3736
0.113973,69.4458
0.11405,69.5171
0.114135,69.5869
0.11422,69.6553
0.114311,69.7222
0.1144,69.7876
0.114494,69.8516
0.114588,69.9131
0.114689,69.971
0.114802,70.0242
0.114924,70.0721
0.115059,70.1133
0.115215,70.146
0.11539,70.1684
0.115591,70.1764
0.115832,70.1659
0.11611,70.1368
0.116551,70.0294
0.117161,69.839
0.117802,69.6349
0.11845,69.4249
0.119106,69.212
0.119766,68.9952
0.120457,68.7599
0.121338,68.4259
0.122315,68.0392
0.123299,67.6466
0.12418,67.2931
0.125195,66.8751
0.126301,66.4083
0.127445,65.922
0.128597,65.4278
0.129749,64.9278
0.130856,64.4395
0.131745,64.0489
0.132496,63.7169
0.133206,63.3966
0.133843,63.1017
0.134186,62.9444
0.134417,62.8385
0.134611,62.7462
0.134803,62.6559
0.135078,62.523
0.135467,62.3365
0.135911,62.1217
0.136388,61.8922
0.136884,61.6519
0.137395,61.4059
0.137914,61.1539
0.138444,60.898
0.138971,60.6402
0.139486,60.3844
0.139892,60.1744
0.140168,60.023
0.140376,59.9024
0.140534,59.8014
0.140663,59.7135
0.140768,59.6363
0.140852,59.568
0.140915,59.5077
0.140961,59.4561
0.140993,59.4112
0.141012,59.3712
0.141023,59.3351
0.141028,59.3016
0.141032,59.2704
0.141031,59.2411
0.141027,59.2136
0.141022,59.1878
0.141015,59.1635
0.141004,59.1406
0.140994,59.1187
0.140982,59.0977
0.140969,59.0776
0.140957,59.0578
0.140944,59.0388
0.140937,59.0201
0.140929,59.0016
0.140917,58.983
0.140912,58.9644
0.140908,58.9453
0.140906,58.9255
0.140907,58.905
0.140913,58.8839
0.140917,58.8624
0.140925,58.8405
0.140935,58.8187
0.140945,58.7971
0.140954,58.7758
0.140968,58.7553
0.140977,58.7356
0.140983,58.7169
0.14099,58.6996
0.140994,58.6834
0.140996,58.6684
0.140999,58.6544
0.141,58.6412
0.141,58.6288
0.140998,58.617
0.141001,58.6057
0.141,58.595
0.140998,58.5848
0.140998,58.5751
0.140997,58.5658
0.140995,58.5569
0.140994,58.5486
0.140993,58.5407
0.140995,58.5331
0.140995,58.5257
0.140992,58.5187
0.140997,58.5121
0.140999,58.5058
0.141,58.4997
0.141003,58.4939
0.141006,58.4881
0.141012,58.4825
0.141015,58.4769
0.14102,58.4716
0.141028,58.4666
0.141035,58.4617
0.141042,58.457
0.141048,58.4525
0.141057,58.4482
0.141063,58.4439
0.141071,58.4398
0.14108,58.4358
0.141087,58.4321
0.141095,58.4284
0.141102,58.4249
0.141109,58.4216
0.141119,58.4184
0.141128,58.4152
0.141134,58.4122
0.141146,58.4093
0.141158,58.4066
0.141171,58.4041
0.141182,58.4018
0.141198,58.3996
0.141211,58.3976
0.141227,58.3957
0.141245,58.3938
0.14126,58.3922
0.141278,58.3907
0.141298,58.3894
0.141315,58.3883
0.141334,58.3872
0.141351,58.3863
0.14137,58.3856
0.141391,58.3849
0.141413,58.3844
0.141437,58.384
0.141458,58.3838
0.141481,58.3837
0.141507,58.3838
0.14153,58.384
0.141555,58.3843
0.141581,58.3846
0.141609,58.3851
0.141634,58.3857
0.141661,58.3864
0.141689,58.3873
0.141719,58.3883
0.141748,58.3894
0.141778,58.3904
0.141811,58.3914
0.141841,58.3924
0.141873,58.3936
0.141906,58.3947
0.141941,58.3959
0.141973,58.3971
0.142008,58.3985
0.142043,58.3999
0.142078,58.4013
0.142116,58.4028
0.142153,58.4045
0.14219,58.4064
0.142229,58.4082
0.142266,58.4103
0.142305,58.4125
0.142344,58.4147
0.142383,58.417
0.142425,58.4193
0.142463,58.4216
0.142505,58.4241
0.142543,58.4266
0.142587,58.4292
0.142628,58.432
0.142669,58.4348
0.142712,58.4376
0.142756,58.4404
0.142802,58.4433
0.142846,58.4462
0.142891,58.4494
0.142934,58.4526
0.14298,58.4558
0.143028,58.4592
0.143073,58.4626
0.143121,58.4662
0.143165,58.47
0.143212,58.474
0.143259,58.4783
0.143301,58.483
0.143346,58.4881
0.143389,58.4937
0.143435,58.4998
0.143479,58.5065
0.143522,58.514
0.143561,58.5229
0.143601,58.5335
0.143634,58.5466
0.143663,58.5621
0.143687,58.58
0.14371,58.6
0.143725,58.6223
0.143738,58.6468
0.14375,58.6733
0.143758,58.7018
0.143763,58.7317
0.143766,58.7624
0.143771,58.7937
0.143776,58.8249
0.143783,58.8569
0.143792,58.8889
0.143797,58.9214
0.143804,58.9543
0.143814,58.9878
0.143822,59.022
0.143829,59.0564
0.143835,59.0913
0.143843,59.1265
0.14385,59.1623
0.143857,59.1985
0.143866,59.2351
0.143873,59.2722
0.14388,59.3098
0.143885,59.3479
0.143893,59.3862
0.143902,59.425
0.143908,59.4641
0.143917,59.5037
0.143924,59.5437
0.14393,59.5842
0.143939,59.625
0.143946,59.6665
0.143953,59.708
0.143962,59.75
0.143973,59.7922
0.143983,59.835
0.14399,59.8779
0.144002,59.9214
0.144014,59.9651
0.144021,60.009
0.144032,60.0532
0.144044,60.0977
0.144053,60.1423
0.144065,60.1873
0.144076,60.2324
0.14409,60.2778
0.144099,60.3237
0.144111,60.3699
0.144119,60.417
0.144131,60.4641
0.144146,60.5117
0.144159,60.5598
0.144172,60.6086
0.14419,60.6577
0.144203,60.7072
0.144218,60.7575
0.144233,60.8081
0.144247,60.8586
0.144261,60.9094
0.144278,60.9599
0.144296,61.0107
0.144312,61.0615
0.144329,61.1123
0.144345,61.1635
0.144364,61.2146
0.144383,61.2661
0.144401,61.3176
0.144422,61.3696
0.144441,61.4218
0.14446,61.4746
0.144483,61.5278
0.144503,61.5813
0.144526,61.635
0.144545,61.6887
0.144571,61.7424
0.144593,61.7963
0.144614,61.8505
0.144636,61.9047
0.144656,61.9592
0.14468,62.0141
0.144705,62.069
0.144733,62.1245
0.144757,62.1804
0.144785,62.2368
0.14481,62.2937
0.14484,62.3505
0.14487,62.4079
0.144899,62.4653
0.144931,62.5227
0.14496,62.5803
0.14499,62.6377
0.145023,62.6945
0.145054,62.7514
0.145088,62.8078
0.145119,62.8645
0.145155,62.9213
0.145186,62.978
0.145223,63.0346
0.145263,63.0913
0.145303,63.1477
0.14534,63.2041
0.14538,63.2602
0.145421,63.3164
0.145463,63.3723
0.145502,63.4274
0.145546,63.4819
0.145595,63.5356
0.145646,63.5881
0.145703,63.6391
0.145764,63.6887
0.145833,63.7351
0.145912,63.7771
0.14602,63.8064
0.146174,63.8101
0.146379,63.7911
0.146614,63.7579
0.146862,63.7164
0.147125,63.6697
0.14739,63.6197
0.147655,63.5679
0.14792,63.5157
0.148174,63.4652
0.148406,63.4244
0.148589,63.4064
0.148723,63.4086
0.148834,63.4228
0.14893,63.4437
0.149012,63.4687
0.149091,63.4964
0.149166,63.5264
0.149234,63.5581
0.149298,63.5913
0.149362,63.6265
0.14942,63.6636
0.149476,63.7024
0.149528,63.7432
0.149576,63.7856
0.149622,63.8298
0.14967,63.8752
0.149713,63.9219
0.149754,63.9695
0.149796,64.0178
0.149831,64.0669
0.149868,64.1164
0.149903,64.1667
0.149935,64.2175
0.149972,64.2685
0.150005,64.3201
0.150041,64.3713
0.150075,64.4219
0.150111,64.4722
0.150153,64.522
0.150197,64.5713
0.150238,64.6201
0.150283,64.6682
0.150336,64.7143
0.150397,64.7551
0.150465,64.791
0.150542,64.8237
0.150624,64.8547
0.150711,64.8845
0.150795,64.9137
0.150884,64.9426
0.150975,64.9713
0.151064,64.9999
0.151154,65.0298
0.151232,65.0647
0.151302,65.1037
0.151363,65.146
0.151422,65.1907
0.151474,65.2373
0.151523,65.2849
0.151571,65.3337
0.151616,65.3833
0.15166,65.4336
0.151705,65.4848
0.151748,65.5368
0.15179,65.5898
0.15183,65.6433
0.151869,65.6975
0.151913,65.7522
0.151954,65.8069
0.151994,65.862
0.15203,65.9175
0.152068,65.9734
0.152106,66.0295
0.152144,66.0859
0.152184,66.1423
0.152223,66.1992
0.152262,66.2561
0.152306,66.3137
0.152346,66.3713
0.15239,66.4289
0.152436,66.4863
0.152481,66.5434
0.152529,66.6003
0.152574,66.6567
0.152621,66.7129
0.152669,66.7683
0.152718,66.8232
0.152768,66.8777
0.152819,66.9316
0.152874,66.9853
0.152928,67.039
0.152983,67.0925
0.153041,67.146
0.153099,67.1994
0.153156,67.2532
0.153211,67.3069
0.153265,67.3608
0.153318,67.4148
0.153374,67.4695
0.153429,67.5242
0.153484,67.5791
0.153544,67.634
0.153602,67.6892
0.15366,67.7441
0.153721,67.7986
0.153786,67.853
0.153846,67.907
0.153907,67.9602
0.153973,68.0127
0.154037,68.0644
0.154104,68.116
0.15417,68.167
0.154236,68.2178
0.154306,68.2683
0.154376,68.3188
0.154447,68.3689
0.15452,68.4192
0.15459,68.4695
0.154664,68.5198
0.154733,68.5701
0.154804,68.6203
0.154875,68.6702
0.154951,68.719
0.155037,68.7661
0.155122,68.8108
0.155219,68.852
0.155326,68.8887
0.155441,68.9202
0.155569,68.9469
0.155704,68.969
0.155847,68.9868
0.156,69.0011
0.156158,69.0124
0.156315,69.0217
0.156473,69.0296
0.156635,69.037
0.156794,69.0449
0.156952,69.054
0.157106,69.0636
0.157255,69.073
0.15741,69.0812
0.157566,69.0871
0.157729,69.0898
0.157901,69.0881
0.158086,69.0806
0.158286,69.0637
0.158536,69.0241
0.158925,68.9167
0.159406,68.7653
0.159928,68.5915
0.160485,68.403
0.161065,68.2018
0.161672,67.985
0.162301,67.7516
0.162946,67.5085
0.163587,67.2614
0.164189,67.0261
0.164666,66.8503
0.16505,66.7126
0.165395,66.5905
0.165715,66.4792
0.166009,66.3781
0.166268,66.2922
0.166493,66.2223
0.166683,66.165
0.166853,66.1181
0.167005,66.0785
0.167145,66.0446
0.167276,66.0149
0.167393,65.9893
0.167506,65.9671
0.16761,65.9479
0.167705,65.9314
0.167799,65.9168
0.16789,65.904
0.167977,65.8927
0.168059,65.8827
0.168142,65.8732
0.168236,65.8574
0.168501,65.7582
0.16887,65.6127
0.169278,65.4438
0.169737,65.2533
0.170237,65.0405
0.170771,64.8139
0.171324,64.5766
0.171889,64.3315
0.17245,64.0815
0.172999,63.8325
0.173377,63.6635
0.173655,63.5385
0.173888,63.4316
0.174077,63.3442
0.174223,63.2753
0.174347,63.218
0.174451,63.1691
0.174541,63.1257
0.174625,63.0866
0.174698,63.051
0.174766,63.0185
0.174828,62.9882
0.174887,62.9599
0.174942,62.9334
0.174994,62.9084
0.175042,62.8848
0.175088,62.8626
0.175133,62.8414
0.175175,62.821
0.175218,62.8014
0.175257,62.7826
0.175295,62.7643
0.175331,62.7468
0.175369,62.7298
0.175406,62.7134
0.175442,62.6974
0.175477,62.682
0.175511,62.667
0.175547,62.6523
0.175582,62.638
0.175617,62.6243
0.175653,62.611
0.175685,62.5981
0.175723,62.5856
0.175757,62.5734
0.175791,62.5613
0.175827,62.5496
0.175862,62.5383
0.175896,62.5274
0.175932,62.5169
0.175965,62.5067
0.176,62.4969
0.176037,62.4875
0.176073,62.4784
0.176105,62.4697
0.17614,62.4615
0.176176,62.4538
0.176209,62.4465
0.17624,62.4399
0.176276,62.4336
0.176305,62.4278
0.17634,62.4226
0.176372,62.4179
0.176402,62.4137
0.176432,62.4101
0.176462,62.4072
0.17649,62.4047
0.17652,62.4028
0.176549,62.4013
0.176578,62.4003
0.176608,62.3998
0.176637,62.3996
0.176666,62.3998
0.176693,62.4005
0.176723,62.4015
0.17675,62.4029
0.176778,62.4046
0.176809,62.4066
0.176836,62.4089
0.176865,62.4115
0.176894,62.4143
0.176923,62.4174
0.176953,62.4209
0.176981,62.4246
0.177013,62.4286
0.177042,62.4327
0.177071,62.437
0.177102,62.4415
0.177133,62.4463
0.177161,62.4513
0.17719,62.4566
0.177223,62.4621
0.177252,62.4677
0.177283,62.4735
0.177315,62.4794
0.177349,62.4853
0.17738,62.4913
0.177414,62.4975
0.177447,62.5037
0.177481,62.51
0.177514,62.5164
0.17755,62.5227
0.177587,62.529
0.177624,62.5352
0.17766,62.5412
0.1777,62.5474
0.17774,62.5533
0.17778,62.5592
0.177821,62.5649
0.177864,62.5704
0.177908,62.5759
0.177952,62.5813
0.177994,62.5867
0.17804,62.5921
0.178087,62.5976
0.178131,62.6032
0.178177,62.6089
0.178223,62.6146
0.178269,62.6205
0.178316,62.6262
0.178365,62.6319
0.178414,62.6375
0.178464,62.6429
0.178514,62.6482
0.178562,62.6534
0.178612,62.6584
0.17866,62.6633
0.178714,62.668
0.178766,62.6724
0.178819,62.6765
0.178875,62.6803
0.178932,62.6838
0.178989,62.6868
0.179048,62.6894
0.179107,62.6917
0.179171,62.6934
0.179235,62.6946
0.179297,62.6955
0.179362,62.6963
0.179427,62.6973
0.179494,62.6985
0.179555,62.7001
0.179623,62.7021
0.179688,62.7045
0.179751,62.7075
0.179814,62.7111
0.179878,62.7153
0.179937,62.7203
0.179998,62.7259
0.180055,62.7321
0.180114,62.7389
0.180169,62.746
0.180225,62.7538
0.180281,62.762
0.180336,62.7708
0.180389,62.7799
0.180442,62.7896
0.180493,62.8
0.180543,62.8108
0.180593,62.8221
0.180641,62.834
0.180691,62.8463
0.180739,62.8592
0.180784,62.8729
0.18083,62.8873
0.180874,62.9024
0.18092,62.9181
0.180964,62.9344
0.181005,62.9514
0.181047,62.9687
0.181092,62.9865
0.181132,63.005
0.181175,63.0238
0.18122,63.0428
0.181261,63.0621
0.181302,63.0816
0.181343,63.1013
0.181386,63.1209
0.181427,63.1406
0.18147,63.1604
0.181514,63.1801
0.181554,63.1998
0.181598,63.2192
0.181643,63.2384
0.181692,63.2569
0.181742,63.2746
0.181795,63.2915
0.181853,63.3068
0.181915,63.3202
0.181982,63.3315
0.182054,63.3401
0.182133,63.3457
0.182217,63.3484
0.182311,63.348
0.182408,63.3449
0.182512,63.3395
0.182617,63.332
0.182733,63.3226
0.182849,63.3116
0.182966,63.2987
0.183086,63.2842
0.183209,63.2684
0.183331,63.2511
0.183459,63.2332
0.183584,63.2148
0.18371,63.196
0.183833,63.1772
0.183958,63.1587
0.184082,63.1413
0.184199,63.1254
0.184309,63.1117
0.184416,63.1006
0.184515,63.0923
0.184608,63.0867
0.184696,63.0835
0.184782,63.0827
0.184857,63.0842
0.184931,63.0879
0.185004,63.0935
0.185069,63.1011
0.185131,63.1105
0.18519,63.1216
0.185248,63.1342
0.185301,63.1479
0.185351,63.1629
0.1854,63.1788
0.185446,63.1957
0.185494,63.2134
0.185537,63.2318
0.185578,63.2511
0.185624,63.271
0.185663,63.2916
0.185706,63.3128
0.185745,63.3348
0.185788,63.3575
0.185824,63.3808
0.185864,63.4049
0.185903,63.4294
0.185941,63.4547
0.185981,63.4803
0.18602,63.5064
0.186055,63.5329
0.186096,63.5598
0.186133,63.5868
0.186169,63.614
0.186209,63.6412
0.186248,63.6686
0.186287,63.6959
0.18633,63.7232
0.186366,63.7505
0.186409,63.7776
0.186449,63.8045
0.18649,63.8312
0.186537,63.8575
0.186579,63.8836
0.186627,63.9094
0.186674,63.9347
0.186722,63.9594
0.186774,63.9834
0.186827,64.0068
0.186882,64.0295
0.186941,64.0515
0.187001,64.0728
0.187063,64.0933
0.187127,64.1131
0.187192,64.1319
0.187262,64.1501
0.187331,64.1674
0.187401,64.1843
0.187472,64.2005
0.187547,64.2164
0.187619,64.232
0.187694,64.2475
0.187767,64.2629
0.187839,64.2785
0.187914,64.2943
0.187991,64.3107
0.188063,64.3275
0.188138,64.3447
0.188211,64.3627
0.188281,64.3811
0.188355,64.4
0.188423,64.4193
0.188492,64.439
0.188561,64.459
0.18863,64.4793
0.188698,64.4999
0.188765,64.5208
0.188829,64.5419
0.188898,64.5631
0.188961,64.5844
0.189027,64.6059
0.18909,64.6277
0.189154,64.6499
0.189218,64.6725
0.189281,64.6953
0.189346,64.7187
0.189411,64.7421
0.189475,64.7659
0.189538,64.7901
0.189601,64.8145
0.189663,64.8391
0.189723,64.8639
0.189785,64.8888
0.189846,64.9136
0.189911,64.9386
0.18997,64.9635
0.190034,64.9885
0.190095,65.0138
0.190159,65.039
0.190226,65.0644
0.19029,65.0896
0.190356,65.115
0.190423,65.1405
0.190492,65.1662
0.190558,65.1917
0.190625,65.2171
0.190694,65.2423
0.190762,65.2674
0.190832,65.2923
0.1909,65.317
0.190968,65.3418
0.191036,65.3664
0.191102,65.3908
0.19117,65.4153
0.191236,65.4398
0.1913,65.4646
0.191368,65.4899
0.191434,65.5155
0.191496,65.5416
0.19156,65.5683
0.191623,65.5955
0.191684,65.6234
0.191745,65.6518
0.191804,65.6808
0.191862,65.7104
0.191919,65.7404
0.191977,65.771
0.192032,65.8023
0.192082,65.834
0.192134,65.8665
0.192188,65.8992
0.192238,65.9326
0.19229,65.9668
0.19234,66.0015
0.192389,66.0369
0.192439,66.073
0.192488,66.1096
0.192536,66.1468
0.192583,66.1843
0.192633,66.2222
0.192682,66.2603
0.192727,66.2986
0.192775,66.3374
0.192819,66.3762
0.192863,66.4153
0.19291,66.4546
0.192951,66.4939
0.193,66.5335
0.193045,66.573
0.193087,66.6133
0.193131,66.6538
0.193174,66.6948
0.19322,66.7359
0.193265,66.7771
0.193313,66.8189
0.193357,66.8606
0.193401,66.9026
0.193444,66.9448
0.19349,66.9871
0.193534,67.0293
0.193576,67.0718
0.193622,67.1143
0.193665,67.1568
0.193714,67.1992
0.193762,67.242
0.193807,67.2849
0.193857,67.3279
0.193908,67.3709
0.193961,67.4138
0.194015,67.4566
0.194064,67.499
0.194118,67.5415
0.194171,67.5835
0.194227,67.6253
0.19428,67.6665
0.194335,67.7075
0.194394,67.7481
0.194453,67.7884
0.194509,67.8284
0.19457,67.8682
0.19463,67.9075
0.194696,67.9461
0.194759,67.9842
0.194827,68.0215
0.194897,68.0581
0.194968,68.0938
0.195039,68.1287
0.195111,68.1624
0.195189,68.1948
0.195267,68.2261
0.19535,68.2561
0.195439,68.2848
0.195525,68.3123
0.195619,68.3383
0.195716,68.3628
0.195818,68.385
0.195926,68.4047
0.19604,68.421
0.196164,68.4328
0.196301,68.4383
0.196456,68.4351
0.196632,68.4203
0.196836,68.3906
0.19708,68.3427
0.197364,68.2743
0.197688,68.1865
0.198053,68.079
0.198505,67.9286
0.199176,67.6708
0.199981,67.3447
0.200851,66.9911
0.20174,66.62
0.202636,66.247
0.203517,65.8759
0.204376,65.5126
0.205203,65.1572
0.205997,64.8095
0.206699,64.495
0.207179,64.2841
0.207521,64.1337
0.207799,64.0126
0.208041,63.9076
0.208258,63.8124
0.20846,63.7231
0.208645,63.6396
0.208825,63.56
0.208994,63.4833
0.209158,63.4081
0.209331,63.3305
0.21339,61.3696
