"Maximum force",82.7753,"N"
"Gage length ",1.0241,"mm"
"Strain energy",9.39326,"mJ"
"Deformation at maximum force",0.184378,"mm"
"Standard travel","Standard force"
"mm","N"
0,0.324879
-7.59959e-007,0.325239
-1.30758e-006,0.325498
-2.05263e-006,0.325851
2.86847e-007,0.326116
-1.69501e-007,0.326337
-7.65547e-007,0.326619
-1.32807e-006,0.326884
-2.12155e-006,0.327262
-2.56673e-006,0.327473
-2.96347e-006,0.327661
-3.44403e-006,0.327888
-1.11945e-006,0.328161
-1.61119e-006,0.328398
-2.15508e-006,0.328655
-2.60398e-006,0.328868
-3.01749e-006,0.329063
-7.52509e-007,0.329361
-1.06916e-006,0.329518
-1.63168e-006,0.329783
-2.2091e-006,0.330058
-2.65613e-006,0.33027
-3.23355e-006,0.330544
-8.34465e-007,0.330779
-1.43424e-006,0.331069
-1.9297e-006,0.331304
-2.26311e-006,0.331461
-2.49501e-006,0.331571
-2.74274e-006,0.331688
-2.94112e-006,0.331782
-3.18885e-006,0.3319
-3.45334e-006,0.332025
-6.81728e-007,0.332088
-8.95001e-007,0.33219
-8.95006e-007,0.33219
-9.94192e-007,0.332237
-1.15904e-006,0.332315
-1.29128e-006,0.332378
-1.58931e-006,0.332519
-1.90223e-006,0.332668
-2.26545e-006,0.33284
-2.72925e-006,0.33306
-3.14275e-006,0.333255
-3.68665e-006,0.333513
-4.06849e-006,0.333694
-1.72901e-006,0.333959
-2.15369e-006,0.334164
-2.79816e-006,0.334469
-3.12971e-006,0.334626
-3.54322e-006,0.334822
-3.83938e-006,0.334963
-4.03869e-006,0.335057
-4.12157e-006,0.335097
-4.10551e-006,0.335089
-4.18793e-006,0.335128
-4.27035e-006,0.335167
-4.30365e-006,0.335183
-4.27082e-006,0.335167
-4.13857e-006,0.335105
-4.26989e-006,0.335167
-4.30365e-006,0.335183
-4.43589e-006,0.335245
-4.58397e-006,0.335316
-4.76651e-006,0.335402
-5.11297e-006,0.335566
-5.22938e-006,0.335622
-5.62612e-006,0.335809
-5.89062e-006,0.335934
-6.31903e-006,0.336138
-6.48574e-006,0.336217
-6.60169e-006,0.336272
-6.84942e-006,0.336389
-7.04779e-006,0.336483
-7.37748e-006,0.33664
-7.4117e-006,0.336656
-7.57655e-006,0.336734
-7.56071e-006,0.336726
-7.59354e-006,0.336742
-7.64314e-006,0.336765
-7.6762e-006,0.336781
-7.8904e-006,0.336883
-7.80891e-006,0.336844
-7.95699e-006,0.336914
-7.80891e-006,0.336844
-7.92393e-006,0.336899
-7.97376e-006,0.336922
-7.89133e-006,0.336883
-7.90775e-006,0.336891
-8.04e-006,0.336953
-8.23837e-006,0.337047
-8.43674e-006,0.337141
-8.70124e-006,0.337266
-8.88284e-006,0.337353
-9.03186e-006,0.337424
-9.31125e-006,0.337556
-9.49472e-006,0.337643
-9.97156e-006,0.33787
-1.02714e-005,0.338011
-1.06514e-005,0.338191
-1.08666e-005,0.338293
-1.10817e-005,0.338395
-1.12139e-005,0.338458
-1.11813e-005,0.338442
-1.1247e-005,0.338473
-1.11813e-005,0.338442
-1.11812e-005,0.338442
-1.09167e-005,0.338317
-1.07686e-005,0.338247
-1.05041e-005,0.338122
-1.01745e-005,0.337964
-9.97516e-006,0.33787
-9.77679e-006,0.337777
-9.87504e-006,0.337823
-1.0106e-005,0.337933
-1.03211e-005,0.338035
-1.06844e-005,0.338206
-1.09991e-005,0.338355
-1.13456e-005,0.33852
-1.16269e-005,0.338654
-1.20068e-005,0.338834
-1.23216e-005,0.338983
-1.26178e-005,0.339123
-1.28013e-005,0.33921
-1.27519e-005,0.339187
-1.27518e-005,0.339186
-1.26526e-005,0.339139
-1.25203e-005,0.339077
-1.23881e-005,0.339015
-1.22726e-005,0.338959
-1.21897e-005,0.33892
-1.19913e-005,0.338826
-1.2057e-005,0.338857
-1.20409e-005,0.33885
-1.20903e-005,0.338873
-1.21069e-005,0.338881
-1.20576e-005,0.338858
-1.23053e-005,0.338975
-1.24869e-005,0.339061
-1.27179e-005,0.339171
-1.29824e-005,0.339296
-1.32469e-005,0.339421
-1.33633e-005,0.339476
-1.34788e-005,0.339531
-1.3578e-005,0.339578
-1.35784e-005,0.339578
-1.38261e-005,0.339696
-1.38759e-005,0.339719
-1.39584e-005,0.339758
-1.39422e-005,0.339751
-1.38099e-005,0.339688
-1.37934e-005,0.33968
-1.38098e-005,0.339688
-1.39253e-005,0.339743
-1.39914e-005,0.339774
-1.41898e-005,0.339868
-1.41407e-005,0.339845
-1.41405e-005,0.339845
-1.41735e-005,0.33986
-1.41571e-005,0.339852
-1.41405e-005,0.339845
-1.40413e-005,0.339798
-1.40248e-005,0.33979
-1.39256e-005,0.339743
-1.39256e-005,0.339743
-1.39421e-005,0.339751
-1.40245e-005,0.33979
-1.42396e-005,0.339891
-1.44706e-005,0.340001
-1.47835e-005,0.34015
-1.51319e-005,0.340315
-1.55118e-005,0.340494
-1.57102e-005,0.340589
-1.59747e-005,0.340714
-1.60911e-005,0.340769
-1.60087e-005,0.34073
-1.59426e-005,0.340699
-1.57945e-005,0.340628
-1.54648e-005,0.340472
-1.51332e-005,0.340315
-1.48688e-005,0.340189
-1.46536e-005,0.340088
-1.44552e-005,0.339994
-1.43724e-005,0.339954
-1.43719e-005,0.339954
-1.44711e-005,0.340001
-1.45703e-005,0.340048
-1.46695e-005,0.340095
-1.49824e-005,0.340244
-1.53959e-005,0.340439
-1.56436e-005,0.340557
-1.57936e-005,0.340628
-1.59417e-005,0.340698
-1.61242e-005,0.340785
-1.61409e-005,0.340793
-1.61409e-005,0.340793
-1.61574e-005,0.3408
-1.62398e-005,0.34084
-1.62072e-005,0.340824
-1.60251e-005,0.340738
-1.59921e-005,0.340722
-1.59097e-005,0.340683
-1.58105e-005,0.340636
-1.55795e-005,0.340526
-1.56941e-005,0.340581
-1.86147e-005,0.340589
-1.85679e-005,0.340566
-1.85018e-005,0.340534
-1.83034e-005,0.34044
-1.83198e-005,0.340448
-1.82211e-005,0.340401
-1.82371e-005,0.340409
-1.83363e-005,0.340456
-1.84686e-005,0.340518
-1.85841e-005,0.340573
-1.86832e-005,0.34062
-1.90129e-005,0.340777
-1.91629e-005,0.340847
-1.95745e-005,0.341043
-1.97077e-005,0.341106
-1.99722e-005,0.341231
-2.01044e-005,0.341294
-2.03028e-005,0.341388
-2.02542e-005,0.341365
-2.00232e-005,0.341255
-1.99897e-005,0.341239
-1.97252e-005,0.341114
-2.23776e-005,0.340997
-2.19883e-005,0.340809
-2.164e-005,0.340645
-2.14248e-005,0.340542
-2.12767e-005,0.340472
-2.1029e-005,0.340354
-2.10444e-005,0.340362
-2.11925e-005,0.340432
-2.11767e-005,0.340424
-2.14245e-005,0.340542
-2.16722e-005,0.340659
-2.21025e-005,0.340863
-2.24657e-005,0.341035
-2.27786e-005,0.341184
-2.2896e-005,0.341239
-2.31754e-005,0.341372
-2.3276e-005,0.341419
-2.34911e-005,0.341521
-2.34912e-005,0.341521
-2.34582e-005,0.341506
-2.32598e-005,0.341412
-2.30782e-005,0.341325
-2.30449e-005,0.34131
-2.27972e-005,0.341192
-2.28791e-005,0.341231
-2.2731e-005,0.341161
-2.27472e-005,0.341169
-2.2533e-005,0.341067
-2.2615e-005,0.341106
-2.25986e-005,0.341098
-2.2714e-005,0.341153
-2.26484e-005,0.341122
-2.25823e-005,0.34109
-2.27629e-005,0.341176
-2.28132e-005,0.3412
-2.29613e-005,0.34127
-2.30777e-005,0.341325
-2.31438e-005,0.341357
-2.321e-005,0.341388
-2.3243e-005,0.341404
-2.33585e-005,0.341458
-2.34577e-005,0.341505
-2.085e-005,0.341647
-2.08658e-005,0.341654
-2.08824e-005,0.341662
-2.09319e-005,0.341686
-2.08663e-005,0.341654
-2.0833e-005,0.341639
-2.07834e-005,0.341615
-2.07668e-005,0.341607
-2.08324e-005,0.341639
-2.07011e-005,0.341576
-2.05521e-005,0.341506
-2.04031e-005,0.341435
-2.03039e-005,0.341388
-2.01055e-005,0.341294
-2.00889e-005,0.341286
-2.01382e-005,0.34131
-2.02537e-005,0.341364
-2.05014e-005,0.341482
-2.06011e-005,0.341529
-2.09643e-005,0.341701
-2.1064e-005,0.341748
-2.13769e-005,0.341897
-2.15436e-005,0.341975
-2.16428e-005,0.342022
-2.17252e-005,0.342062
-2.16926e-005,0.342046
-2.1742e-005,0.34207
-2.1429e-005,0.341922
-2.11971e-005,0.341812
-2.08675e-005,0.341655
-2.06346e-005,0.341545
-2.03385e-005,0.341404
-2.01885e-005,0.341333
-2.0188e-005,0.341333
-2.01384e-005,0.34131
-2.01713e-005,0.341325
-2.00558e-005,0.341271
-2.01545e-005,0.341317
-2.03035e-005,0.341388
-2.05019e-005,0.341482
-2.06341e-005,0.341544
-2.08493e-005,0.341646
-2.1097e-005,0.341764
-2.13447e-005,0.341882
-2.13782e-005,0.341897
-2.15766e-005,0.341991
-2.16262e-005,0.342015
-2.18739e-005,0.342132
-2.18578e-005,0.342125
-2.18743e-005,0.342132
-2.17751e-005,0.342086
-2.16596e-005,0.342031
-2.14445e-005,0.341929
-2.12629e-005,0.341843
-2.11637e-005,0.341796
-2.09327e-005,0.341686
-2.08494e-005,0.341647
-2.06184e-005,0.341537
-2.05355e-005,0.341498
-2.05681e-005,0.341513
-2.07004e-005,0.341576
-2.08652e-005,0.341654
-2.07833e-005,0.341615
-2.0882e-005,0.341662
-2.10636e-005,0.341748
-2.12452e-005,0.341834
-2.1411e-005,0.341913
-2.14443e-005,0.341929
-2.16259e-005,0.342014
-2.17251e-005,0.342062
-2.1841e-005,0.342117
-2.18743e-005,0.342132
-2.20727e-005,0.342226
-2.20727e-005,0.342226
-2.20562e-005,0.342219
-2.20727e-005,0.342226
-2.19903e-005,0.342187
-2.20727e-005,0.342226
-2.20066e-005,0.342195
-2.19404e-005,0.342164
-2.19568e-005,0.342171
-2.18414e-005,0.342117
-2.18742e-005,0.342132
-2.16926e-005,0.342046
-2.17582e-005,0.342077
-2.17256e-005,0.342062
-2.17419e-005,0.34207
-2.16106e-005,0.342007
-2.16758e-005,0.342038
-2.16265e-005,0.342015
-2.16263e-005,0.342015
-2.16263e-005,0.342015
-2.17912e-005,0.342093
-2.18412e-005,0.342117
-2.18577e-005,0.342124
-2.19402e-005,0.342164
-2.22214e-005,0.342296
-2.23369e-005,0.342352
-2.23537e-005,0.34236
-2.24692e-005,0.342414
-2.25025e-005,0.34243
-2.25849e-005,0.342469
-2.22552e-005,0.342313
-2.22545e-005,0.342313
-2.20897e-005,0.342234
-2.19407e-005,0.342164
-2.16278e-005,0.342015
-2.4459e-005,0.341984
-2.43677e-005,0.341937
-2.42518e-005,0.341882
-2.41526e-005,0.341835
-2.40371e-005,0.34178
-2.42997e-005,0.341905
-2.43835e-005,0.341944
-2.45819e-005,0.342038
-2.48129e-005,0.342148
-2.51761e-005,0.342319
-2.53922e-005,0.342422
-2.55412e-005,0.342493
-2.56404e-005,0.34254
-2.56404e-005,0.34254
-2.58052e-005,0.342618
-2.57729e-005,0.342602
-2.57892e-005,0.34261
-2.57398e-005,0.342587
-2.56574e-005,0.342548
-2.54255e-005,0.342438
-2.53924e-005,0.342422
-2.53924e-005,0.342422
-2.53759e-005,0.342414
-2.53263e-005,0.342391
-2.55079e-005,0.342477
-2.2781e-005,0.342555
-2.3377e-005,0.342845
-2.09034e-005,0.343049
-1.89812e-005,0.343511
-1.42426e-005,0.344018
-9.77228e-006,0.344655
-5.51055e-006,0.345391
3.90699e-006,0.346414
1.30265e-005,0.347604
2.22056e-005,0.348779
3.08483e-005,0.350182
4.52726e-005,0.351609
5.64187e-005,0.353219
7.03662e-005,0.354875
8.3956e-005,0.356683
0.000100288,0.358575
0.000116381,0.360619
0.000132236,0.36274
0.000150356,0.365136
0.000165316,0.367715
0.000182721,0.370492
0.00020239,0.373559
0.000218126,0.377099
0.000236365,0.380898
0.000253054,0.385323
0.000271532,0.390359
0.00028846,0.396127
0.000303838,0.402596
0.000314805,0.409829
0.000332329,0.418008
0.000345144,0.427102
0.000355694,0.437234
0.000370595,0.448098
0.000380787,0.459817
0.000389609,0.472146
0.000400397,0.484902
0.000410351,0.498147
0.000422332,0.511758
0.000433478,0.525735
0.000444206,0.539956
0.000454399,0.55436
0.000467452,0.568887
0.000477466,0.583413
0.000492725,0.598184
0.000504944,0.613076
0.00051913,0.628396
0.000532779,0.64396
0.000548753,0.659829
0.000561032,0.675942
0.000575456,0.692544
0.000592026,0.709512
0.000607642,0.726846
0.000621948,0.744912
0.000635299,0.763345
0.000647637,0.782388
0.000661823,0.801797
0.000677797,0.821694
0.000689837,0.842202
0.000703606,0.863198
0.000719461,0.884683
0.000731322,0.906533
0.00074825,0.928872
0.000761363,0.951577
0.000773582,0.97477
0.000787768,0.99833
0.000803861,1.02226
0.000816378,1.04667
0.000833782,1.07145
0.000847551,1.09672
0.000863287,1.12223
0.000878307,1.14823
0.000895116,1.1746
0.000908467,1.20145
0.000926945,1.22843
0.000938925,1.2559
0.000955972,1.28361
0.000972304,1.31168
0.000988039,1.34
0.0010033,1.36857
0.00101778,1.3975
0.00103745,1.4268
0.00105378,1.45622
0.00106952,1.486
0.00108728,1.51603
0.00110176,1.54643
0.00112108,1.57719
0.00113681,1.60832
0.00115469,1.63981
0.00117186,1.67155
0.00118819,1.70377
0.00120631,1.73649
0.00122372,1.76945
0.00124041,1.8029
0.001259,1.83683
0.00127653,1.87125
0.00129631,1.90592
0.00131539,1.94108
0.00133387,1.97624
0.00135139,2.01212
0.00136844,2.04801
0.00138763,2.08439
0.00140587,2.12125
0.00142029,2.15861
0.00143996,2.19596
0.00145868,2.23405
0.00147358,2.27238
0.00149015,2.3112
0.00150863,2.35075
0.00152567,2.39079
0.00154439,2.43156
0.00156203,2.47282
0.00158158,2.51457
0.00160006,2.5568
0.00161723,2.59953
0.00163618,2.64298
0.00165442,2.68668
0.0016717,2.73087
0.00169125,2.77531
0.00170747,2.81999
0.00172904,2.86491
0.00174418,2.91007
0.00176171,2.95548
0.00177875,3.00114
0.00179521,3.04704
0.0018138,3.09318
0.00183192,3.13981
0.00184909,3.18668
0.00186864,3.2338
0.00188712,3.28166
0.00190464,3.32975
0.00192121,3.37833
0.00193957,3.42765
0.00196293,3.47697
0.0019795,3.52702
0.00199858,3.57731
0.00201956,3.62785
0.00203672,3.67912
0.00205592,3.73063
0.00207153,3.78239
0.00208941,3.83439
0.0021123,3.88688
0.00213161,3.93986
0.00214961,3.99333
0.00216976,4.04704
0.0021917,4.10148
0.00221244,4.15641
0.00223509,4.21183
0.00225666,4.2675
0.00228015,4.32389
0.0022997,4.38078
0.00232438,4.43791
0.00234595,4.49528
0.00236705,4.5529
0.00238744,4.61051
0.00240723,4.66862
0.0024294,4.72697
0.00245086,4.78581
0.0024716,4.84489
0.00249413,4.90446
0.0025132,4.96427
0.00253693,5.02458
0.00255969,5.08537
0.00258437,5.14665
0.00260833,5.20841
0.00262884,5.27018
0.00264862,5.33244
0.0026708,5.39494
0.00269237,5.45744
0.00271634,5.52091
0.00273958,5.5839
0.00276199,5.64787
0.00278631,5.71183
0.00281289,5.77677
0.00283578,5.84171
0.00286356,5.90666
0.00289074,5.97257
0.00291732,6.03849
0.00294069,6.10441
0.00296679,6.17082
0.0029898,6.23673
0.00301257,6.30314
0.00303522,6.36955
0.00306025,6.43644
0.00308195,6.50285
0.00310925,6.57023
0.00313345,6.63712
0.00316289,6.70451
0.00318924,6.77189
0.00321487,6.83976
0.00323978,6.90763
0.00326446,6.97599
0.00329128,7.04435
0.00331429,7.1132
0.0033392,7.18302
0.00336567,7.25285
0.00339094,7.32365
0.00341776,7.39494
0.00344351,7.46671
0.00347141,7.53898
0.00349561,7.61125
0.00352195,7.68449
0.00354472,7.75773
0.00356689,7.83097
0.00358871,7.9047
0.00361029,7.97843
0.00363437,8.05265
0.00365785,8.12687
0.003678,8.20109
0.00370363,8.2758
0.00373152,8.35099
0.00375584,8.42619
0.00377623,8.50187
0.00379578,8.57804
0.00381747,8.6547
0.00383833,8.73136
0.00386086,8.809
0.00388542,8.88664
0.00390604,8.96525
0.00393108,9.04435
0.00396112,9.12345
0.00398448,9.20353
0.00401023,9.28361
0.00403551,9.36369
0.00406018,9.44425
0.00408164,9.52531
0.00410548,9.60587
0.00412885,9.68742
0.0041546,9.76896
0.00417987,9.8505
0.00421015,9.93253
0.00423721,10.0146
0.00426367,10.0971
0.00428906,10.1801
0.0043135,10.2636
0.00433699,10.3476
0.00435928,10.432
0.00438634,10.517
0.00441245,10.6025
0.00443748,10.6884
0.0044649,10.7748
0.00449732,10.8612
0.00452271,10.9482
0.00454763,11.0356
0.00457159,11.1235
0.00459472,11.2118
0.00461749,11.3002
0.00464013,11.3886
0.00466803,11.4775
0.00469211,11.5663
0.0047181,11.6562
0.00474337,11.746
0.00476805,11.8363
0.00478867,11.9272
0.00481132,12.018
0.00483612,12.1098
0.00485698,12.2016
0.00488523,12.2944
0.00491241,12.3876
0.00493875,12.4814
0.00496713,12.5751
0.00499133,12.6698
0.00501731,12.7651
0.00503961,12.8603
0.00506082,12.9565
0.00508073,13.0531
0.00510291,13.1498
0.00512746,13.247
0.00515417,13.3446
0.00517693,13.4428
0.00520113,13.5414
0.00522092,13.641
0.0052419,13.7411
0.0052642,13.8422
0.00528589,13.9433
0.00531248,14.0453
0.00534109,14.1474
0.0053685,14.2499
0.00539187,14.3534
0.00541464,14.4569
0.00544015,14.5605
0.00546518,14.664
0.00548759,14.768
0.00551585,14.8715
0.005541,14.9755
0.00557152,15.0795
0.00559894,15.1835
0.00562564,15.288
0.00565425,15.393
0.00568453,15.4985
0.00571361,15.6044
0.00574556,15.7104
0.00578347,15.8163
0.00581852,15.9223
0.00585309,16.0282
0.00588432,16.1347
0.00591508,16.2416
0.00593964,16.3485
0.00596741,16.455
0.00600151,16.5614
0.00602975,16.6682
0.00606265,16.7747
0.00608876,16.8826
0.00611319,16.9905
0.00613954,17.0994
0.00616517,17.2083
0.00619318,17.3176
0.0062237,17.427
0.00625422,17.5369
0.00628426,17.6463
0.0063112,17.7561
0.00633993,17.866
0.00637092,17.9763
0.00639918,18.0862
0.00643303,18.1961
0.00646736,18.3059
0.00650146,18.4153
0.00653531,18.5256
0.00656774,18.636
0.00659575,18.7478
0.00662532,18.8596
0.00665989,18.9719
0.0066904,19.0852
0.00672641,19.1985
0.00676431,19.3118
0.00679507,19.426
0.00682463,19.5413
0.00685372,19.656
0.00688269,19.7713
0.00691774,19.8865
0.00695302,20.0012
0.00698497,20.1165
0.00701954,20.2317
0.0070503,20.3469
0.00708058,20.4631
0.00711634,20.5794
0.00715186,20.6956
0.00719001,20.8118
0.00723078,20.928
0.00726821,21.0447
0.00730707,21.1624
0.00734236,21.28
0.00737407,21.3982
0.0074084,21.5159
0.00744536,21.6345
0.00748493,21.7527
0.00752094,21.8718
0.00755193,21.9915
0.00758149,22.1121
0.00761249,22.2332
0.00764611,22.3543
0.00768187,22.4763
0.0077193,22.5984
0.00775578,22.721
0.0077882,22.8445
0.00781657,22.9685
0.00784709,23.0925
0.00788095,23.2166
0.00791433,23.3406
0.00794747,23.4651
0.00798251,23.5901
0.00801303,23.7151
0.00804498,23.8421
0.00808098,23.969
0.00811579,24.0969
0.00815513,24.2249
0.0081959,24.3538
0.00823238,24.4837
0.00826742,24.6145
0.00830176,24.7454
0.00833275,24.8762
0.00836899,25.0071
0.00840523,25.1389
0.00844123,25.2698
0.00847366,25.4016
0.00850775,25.5344
0.00854423,25.6663
0.00858309,25.7991
0.00862529,25.9319
0.00867011,26.0647
0.00870874,26.1975
0.0087476,26.3303
0.00877812,26.4631
0.00881483,26.596
0.00885489,26.7278
0.00889542,26.8596
0.00893237,26.9924
0.00896623,27.1253
0.00899889,27.2581
0.00903704,27.3909
0.00907495,27.5247
0.00911548,27.6575
0.00915529,27.7913
0.00918844,27.926
0.00922086,28.0598
0.00925054,28.1946
0.00928368,28.3284
0.00932064,28.4622
0.00935473,28.596
0.00938811,28.7307
0.00942101,28.8645
0.00945296,28.9993
0.00949039,29.134
0.00952759,29.2698
0.0095705,29.4046
0.00960984,29.5403
0.00964513,29.676
0.00968303,29.8118
0.0097207,29.9485
0.00975814,30.0842
0.00980153,30.221
0.00983896,30.3567
0.00987568,30.4934
0.00991478,30.6301
0.00995364,30.7678
0.00999584,30.9046
0.0100409,31.0413
0.0100886,31.178
0.0101298,31.3157
0.0101735,31.4534
0.0102142,31.5911
0.010255,31.7278
0.0103017,31.8655
0.0103451,32.0032
0.010384,32.1419
0.0104248,32.2805
0.0104643,32.4202
0.0105061,32.5598
0.0105554,32.7005
0.0106012,32.8411
0.0106424,32.9827
0.0106827,33.1243
0.0107223,33.2669
0.0107647,33.4094
0.0108069,33.552
0.0108484,33.6946
0.010888,33.8381
0.0109264,33.9827
0.0109698,34.1272
0.0110156,34.2717
0.0110663,34.4172
0.0111162,34.5628
0.0111591,34.7092
0.0112039,34.8557
0.0112485,35.0032
0.0112947,35.1506
0.0113381,35.2981
0.0113837,35.4456
0.011428,35.594
0.0114745,35.7434
0.0115234,35.8919
0.0115749,36.0413
0.0116292,36.1907
0.0116748,36.3401
0.0117201,36.4895
0.0117601,36.638
0.011804,36.7864
0.0118486,36.9348
0.0118932,37.0833
0.0119349,37.2317
0.0119797,37.3801
0.0120253,37.5276
0.0120772,37.6751
0.0121287,37.8235
0.0121745,37.971
0.0122169,38.1184
0.0122594,38.2669
0.0123047,38.4143
0.0123502,38.5628
0.0123931,38.7102
0.0124353,38.8587
0.0124761,39.0071
0.0125188,39.1565
0.0125643,39.3059
0.0126153,39.4553
0.0126599,39.6047
0.0127069,39.7542
0.0127481,39.9046
0.0127954,40.054
0.0128428,40.2044
0.0128931,40.3538
0.012937,40.5042
0.0129808,40.6536
0.01303,40.804
0.0130815,40.9553
0.0131356,41.1057
0.0131897,41.2561
0.0132405,41.4075
0.0132874,41.5588
0.0133368,41.7102
0.0133864,41.8616
0.0134355,42.0139
0.0134806,42.1663
0.0135275,42.3186
0.0135743,42.471
0.0136272,42.6243
0.013682,42.7776
0.0137354,42.9309
0.0137819,43.0852
0.0138248,43.2405
0.0138718,43.3958
0.0139181,43.552
0.0139688,43.7083
0.014013,43.8655
0.0140621,44.0227
0.0141124,44.1809
0.0141679,44.3391
0.0142256,44.4983
0.0142771,44.6575
0.0143246,44.8167
0.0143777,44.9768
0.0144311,45.136
0.0144819,45.2952
0.0145349,45.4553
0.0145904,45.6145
0.0146464,45.7747
0.0147056,45.9338
0.014768,46.093
0.014831,46.2522
0.0148858,46.4114
0.0149416,46.5696
0.0149979,46.7278
0.0150575,46.885
0.0151123,47.0432
0.0151669,47.2005
0.0152182,47.3577
0.0152756,47.5159
0.0153338,47.6731
0.0153922,47.8294
0.0154478,47.9866
0.0155009,48.1438
0.0155517,48.3001
0.0156061,48.4563
0.0156633,48.6126
0.0157148,48.7688
0.0157637,48.9251
0.0158209,49.0813
0.0158807,49.2376
0.0159427,49.3938
0.015999,49.551
0.0160567,49.7083
0.0161106,49.8665
0.0161668,50.0247
0.0162233,50.1829
0.0162772,50.3401
0.0163311,50.4983
0.0163881,50.6555
0.0164486,50.8128
0.016513,50.97
0.0165779,51.1272
0.0166403,51.2835
0.0167009,51.4397
0.0167643,51.596
0.0168301,51.7522
0.0168911,51.9094
0.0169491,52.0667
0.0170056,52.2249
0.0170685,52.3831
0.0171305,52.5432
0.0171935,52.7034
0.0172497,52.8645
0.0173046,53.0266
0.0173587,53.1878
0.0174152,53.3499
0.0174712,53.513
0.0175268,53.6751
0.0175818,53.8381
0.0176429,54.0012
0.0177096,54.1633
0.0177826,54.3264
0.017846,54.4895
0.0179132,54.6526
0.01798,54.8147
0.0180515,54.9768
0.0181216,55.138
0.018196,55.2971
0.0217513,53.7815
0.0268783,51.5003
0.0320357,49.219
0.0371627,46.9221
0.0423507,44.6253
0.0475387,42.3128
0.0527572,39.969
0.0578841,37.6253
0.0628585,35.2659
0.0677413,32.8753
0.0690612,32.1526
0.068777,32.1766
0.0685214,32.1829
0.0682868,32.1758
0.0680655,32.1621
0.06785,32.1466
0.0676364,32.1321
0.0674247,32.119
0.0672082,32.1072
0.0669917,32.0967
0.0667695,32.0876
0.0665435,32.0801
0.0663184,32.0735
0.0660962,32.0674
0.0658778,32.0618
0.0656661,32.0561
0.0654582,32.0499
0.065257,32.0433
0.0650605,32.0367
0.0648679,32.0302
0.0646771,32.0241
0.064494,32.0184
0.0643119,32.0138
0.0641307,32.0102
0.0639495,32.0076
0.0637769,32.0054
0.0636043,32.003
0.0634364,32.0001
0.0632705,31.9961
0.0631131,31.9908
0.0629586,31.9837
0.0628146,31.9746
0.0626792,31.9629
0.0625552,31.9485
0.0624393,31.9313
0.0623316,31.9118
0.062231,31.8901
0.0621375,31.8666
0.0620498,31.8415
0.0619678,31.8151
0.0618881,31.7877
0.0618123,31.7597
0.0617393,31.7317
0.0616654,31.7044
0.0615944,31.6782
0.0615214,31.6531
0.0614518,31.6293
0.0613851,31.6066
0.0613164,31.585
0.0612487,31.5644
0.0611795,31.5446
0.0611114,31.5256
0.0610446,31.5074
0.0609764,31.4897
0.0609135,31.4725
0.06085,31.4553
0.0607866,31.438
0.0607263,31.421
0.060666,31.4036
0.0606083,31.3867
0.0605504,31.3697
0.0604948,31.3531
0.0604419,31.3365
0.0603887,31.32
0.0603391,31.3033
0.06029,31.2863
0.0602442,31.2691
0.0601989,31.2518
0.0601565,31.2343
0.0601176,31.2165
0.060079,31.1987
0.060044,31.1806
0.0600125,31.162
0.0599826,31.1428
0.0599566,31.123
0.0599343,31.103
0.0599094,31.0827
0.0598904,31.0624
0.0598685,31.042
0.0598499,31.0217
0.0598374,31.0009
0.0598228,30.9799
0.0598116,30.9587
0.0598005,30.9373
0.0597947,30.9163
0.0597852,30.8956
0.0597778,30.8753
0.0597697,30.8554
0.0597638,30.8358
0.0597601,30.8165
0.0597528,30.7975
0.0597505,30.779
0.0597442,30.761
0.0597391,30.7438
0.0597357,30.7272
0.0597339,30.7112
0.0597286,30.6956
0.0597281,30.6803
0.0597243,30.6653
0.0597255,30.6507
0.0597228,30.6366
0.0597187,30.6231
0.0597161,30.6103
0.0597154,30.598
0.0597136,30.5863
0.0597138,30.5749
0.0597133,30.5639
0.0597121,30.5533
0.0597101,30.543
0.0597125,30.5334
0.0597108,30.5244
0.059711,30.5159
0.0597129,30.508
0.059711,30.5005
0.0597087,30.4932
0.0597115,30.4862
0.0597107,30.4795
0.059712,30.4733
0.0597152,30.4676
0.0597145,30.4623
0.0597162,30.4573
0.0597201,30.4526
0.0597208,30.448
0.0597266,30.4438
0.0597289,30.4399
0.0597301,30.4365
0.0597335,30.4335
0.059739,30.4308
0.0597438,30.4284
0.0597455,30.4263
0.0597497,30.4242
0.0597537,30.4223
0.0597575,30.4205
0.0597607,30.4189
0.0597634,30.4176
0.0597685,30.4165
0.05977,30.4158
0.0597739,30.4153
0.0597807,30.4149
0.0597874,30.4144
0.0597939,30.4141
0.0597999,30.414
0.0598113,30.4141
0.0598194,30.4144
0.0598298,30.415
0.0598398,30.4158
0.0598527,30.4166
0.0598656,30.4173
0.0598813,30.4182
0.0598939,30.4191
0.0599091,30.4202
0.0599238,30.4215
0.0599381,30.4231
0.0599549,30.4247
0.0599749,30.4263
0.059992,30.4279
0.060012,30.4294
0.060032,30.431
0.0600575,30.4327
0.0600769,30.4346
0.0601017,30.4366
0.0601234,30.4388
0.0601453,30.4409
0.060173,30.4429
0.0602008,30.4449
0.0602288,30.4469
0.0602565,30.4489
0.0602869,30.4511
0.0603169,30.4534
0.0603471,30.4557
0.0603774,30.458
0.0604107,30.46
0.0604415,30.462
0.0604756,30.4638
0.0605128,30.4655
0.0605497,30.4673
0.0605867,30.4691
0.0606234,30.471
0.0606635,30.4727
0.060704,30.4743
0.0607445,30.4756
0.0607858,30.4768
0.0608273,30.4779
0.0608685,30.4789
0.0609126,30.4801
0.060957,30.4812
0.0610015,30.4821
0.0610466,30.4828
0.061095,30.4833
0.0611408,30.4836
0.0611899,30.4838
0.061239,30.484
0.0612879,30.4842
0.0613396,30.4844
0.0613887,30.4846
0.0614409,30.4847
0.0614932,30.4847
0.0615456,30.4846
0.0615983,30.4845
0.0616536,30.4844
0.0617058,30.4845
0.0617635,30.4846
0.0618155,30.4849
0.0618732,30.485
0.0619283,30.4851
0.0619864,30.4851
0.0620415,30.4852
0.0620992,30.4854
0.0621567,30.4857
0.0622163,30.4863
0.0622733,30.4869
0.0623326,30.4878
0.0623891,30.4886
0.0624483,30.4895
0.0625043,30.4905
0.0625626,30.4918
0.0626203,30.4933
0.0626747,30.4952
0.0627312,30.4973
0.0627877,30.4996
0.0628437,30.502
0.0629,30.5043
0.0629534,30.5066
0.0630123,30.509
0.0630659,30.5112
0.0631253,30.5134
0.063182,30.5154
0.0632397,30.5171
0.0633005,30.5186
0.0633597,30.5195
0.0634221,30.5201
0.0634851,30.5205
0.0635485,30.521
0.0636143,30.5215
0.0636768,30.5222
0.0637416,30.5231
0.0638065,30.5241
0.0638708,30.5252
0.0639352,30.5266
0.0639958,30.5282
0.0640582,30.5301
0.0641236,30.5322
0.0641856,30.5347
0.0642466,30.5374
0.06431,30.5405
0.0643729,30.5437
0.0644359,30.5471
0.0645012,30.5508
0.0645627,30.5547
0.0646235,30.5591
0.0646805,30.5638
0.0647396,30.5689
0.0647983,30.5743
0.0648572,30.5796
0.0649158,30.5848
0.0649773,30.5902
0.0650355,30.5959
0.0650958,30.6018
0.0651521,30.6083
0.0652131,30.6152
0.0652706,30.6227
0.0653266,30.6307
0.0653843,30.6394
0.0654403,30.6488
0.0654945,30.6591
0.0655469,30.6704
0.0655996,30.6827
0.0656473,30.6962
0.0656986,30.7108
0.0657419,30.7263
0.065787,30.7425
0.0658333,30.7593
0.0658783,30.7769
0.065922,30.7951
0.0659642,30.814
0.0660052,30.8336
0.0660483,30.8535
0.0660855,30.8734
0.0661287,30.8931
0.0661725,30.9128
0.0662138,30.9321
0.0662584,30.9514
0.0663029,30.9704
0.0663449,30.9896
0.0663902,31.0084
0.0664329,31.027
0.0664794,31.0452
0.0665292,31.0633
0.0665795,31.0811
0.0666262,31.0992
0.0666758,31.1174
0.0667249,31.1358
0.0667762,31.1546
0.0668244,31.1735
0.0668749,31.1925
0.0669252,31.2117
0.0669779,31.2313
0.067027,31.251
0.0670754,31.2712
0.0671257,31.2918
0.067172,31.3129
0.0672201,31.3345
0.0672678,31.3565
0.0673146,31.3789
0.0673575,31.4017
0.0674047,31.4251
0.0674502,31.4495
0.0674934,31.475
0.0675339,31.5018
0.0675718,31.5297
0.06761,31.559
0.0676452,31.5898
0.0676801,31.622
0.0677115,31.656
0.0677392,31.6916
0.0677659,31.7292
0.0677892,31.7685
0.0678095,31.8093
0.0678268,31.8515
0.0678447,31.8947
0.0678573,31.9392
0.0678682,31.9846
0.0678801,32.0307
0.0678905,32.0776
0.0678992,32.1254
0.0679096,32.1738
0.0679159,32.2226
0.067921,32.2722
0.0679308,32.322
0.0679364,32.3727
0.0679436,32.424
0.0679492,32.476
0.0679562,32.5288
0.0679648,32.5822
0.0679692,32.6362
0.0679758,32.6906
0.0679817,32.7453
0.0679897,32.8002
0.0679971,32.8557
0.0680033,32.9116
0.0680083,32.9682
0.0680121,33.0253
0.0680178,33.083
0.0680227,33.1408
0.0680295,33.1994
0.0680348,33.2585
0.0680386,33.3186
0.0680436,33.3793
0.0680469,33.4409
0.0680519,33.5029
0.0680585,33.5654
0.0680615,33.6289
0.0680696,33.6923
0.0680711,33.7563
0.0680775,33.8203
0.0680801,33.8852
0.0680846,33.9501
0.0680856,34.0156
0.0680886,34.0815
0.0680907,34.1479
0.0680949,34.2148
0.0680951,34.2822
0.0680999,34.35
0.0681036,34.4184
0.0681064,34.4873
0.068111,34.5566
0.0681116,34.6264
0.0681168,34.6967
0.0681157,34.7675
0.0681196,34.8388
0.0681201,34.9101
0.0681224,34.9819
0.0681263,35.0546
0.0681285,35.1279
0.0681293,35.2016
0.0681347,35.2763
0.0681389,35.3515
0.0681452,35.4272
0.0681508,35.5029
0.0681554,35.5795
0.0681617,35.6562
0.0681669,35.7338
0.0681658,35.8115
0.068173,35.8896
0.0681766,35.9677
0.0681822,36.0463
0.0681845,36.1254
0.0681917,36.2045
0.0682005,36.2846
0.0682082,36.3652
0.0682151,36.4462
0.0682214,36.5273
0.0682296,36.6088
0.068234,36.6909
0.0682375,36.7734
0.0682456,36.8564
0.0682493,36.9404
0.0682572,37.0248
0.0682633,37.1103
0.0682682,37.1967
0.0682778,37.2831
0.0682836,37.3701
0.0682943,37.4575
0.0682986,37.5454
0.0683051,37.6337
0.0683081,37.7221
0.0683133,37.8105
0.0683209,37.8998
0.068328,37.9887
0.0683345,38.0786
0.0683407,38.1679
0.0683488,38.2582
0.068359,38.3486
0.0683652,38.4399
0.068373,38.5312
0.0683766,38.6235
0.0683813,38.7167
0.068385,38.8105
0.0683932,38.9047
0.0684004,38.9995
0.0684088,39.0952
0.0684188,39.1914
0.0684273,39.2885
0.0684344,39.3862
0.0684401,39.4843
0.0684449,39.583
0.0684518,39.6821
0.0684549,39.7817
0.0684599,39.8818
0.0684664,39.9824
0.0684714,40.0839
0.068478,40.186
0.0684832,40.289
0.0684874,40.392
0.0684877,40.496
0.0684921,40.6005
0.0684952,40.7055
0.0685025,40.8115
0.0685084,40.9184
0.0685154,41.0258
0.0685243,41.1337
0.0685321,41.2421
0.068539,41.351
0.068545,41.4604
0.0685526,41.5707
0.0685567,41.6811
0.068563,41.7915
0.0685686,41.9023
0.0685765,42.0136
0.0685898,42.1254
0.0685962,42.2373
0.0686016,42.3496
0.0686087,42.4628
0.0686173,42.5766
0.0686281,42.6909
0.0686439,42.8051
0.0686588,42.9199
0.0686733,43.0351
0.0686845,43.1503
0.0686955,43.2661
0.0687066,43.3813
0.0687174,43.4965
0.0687279,43.6123
0.0687386,43.728
0.0687487,43.8437
0.0687613,43.9599
0.0687703,44.0761
0.0687814,44.1928
0.0687881,44.3105
0.0687987,44.4287
0.0688086,44.5473
0.0688179,44.6665
0.0688325,44.7856
0.0688465,44.9052
0.0688571,45.0253
0.0688675,45.145
0.0688748,45.2651
0.0688823,45.3852
0.0688929,45.5048
0.068904,45.6245
0.0689198,45.7446
0.0689318,45.8652
0.0689423,45.9863
0.0689515,46.1083
0.0689625,46.2304
0.0689726,46.3535
0.0689845,46.4765
0.0690013,46.6005
0.0690202,46.725
0.069032,46.8496
0.0690431,46.9746
0.0690534,47.1005
0.0690641,47.2255
0.0690782,47.3505
0.0690955,47.4755
0.069113,47.6005
0.0691302,47.7255
0.0691465,47.8515
0.0691651,47.9765
0.0691812,48.1025
0.0692039,48.2275
0.0692304,48.3525
0.0692628,48.477
0.0692895,48.602
0.0693155,48.727
0.0693414,48.852
0.0693673,48.977
0.0693941,49.1015
0.0694284,49.2255
0.0694635,49.3486
0.0694964,49.4721
0.0695295,49.5947
0.06956,49.7177
0.0695951,49.8398
0.0696411,49.9604
0.0696909,50.08
0.069745,50.1967
0.069807,50.3115
0.0698681,50.4238
0.0699353,50.5327
0.0700102,50.6386
0.0700941,50.7402
0.0701933,50.8364
0.0703039,50.9277
0.0704226,51.0136
0.0705523,51.0942
0.0706982,51.1694
0.0708556,51.2392
0.0710253,51.3046
0.0712056,51.3666
0.0713877,51.4248
0.0715775,51.4792
0.071773,51.529
0.0719762,51.5727
0.072205,51.6069
0.0724511,51.6295
0.0727181,51.6441
0.072989,51.6538
0.0732617,51.6604
0.0735402,51.6652
0.0738206,51.669
0.0741009,51.6723
0.0743794,51.677
0.0746426,51.6853
0.0748887,51.7017
0.0750975,51.73
0.0752845,51.7676
0.0754513,51.812
0.0756097,51.8618
0.0757594,51.9156
0.0759024,51.9732
0.0760274,52.0347
0.0761451,52.1001
0.0762543,52.1695
0.0763559,52.2427
0.0764527,52.3179
0.0765505,52.3941
0.0766477,52.4707
0.0767469,52.5464
0.0768475,52.6197
0.0769491,52.69
0.0770588,52.7564
0.077177,52.8189
0.0773019,52.8765
0.0774421,52.9292
0.07759,52.9771
0.0777492,53.0198
0.0779218,53.054
0.0781316,53.0695
0.0784521,53.0307
0.0791578,52.8051
0.0805235,52.2621
0.0819044,51.7152
0.0832853,51.1645
0.0846586,50.6176
0.0860319,50.0707
0.0873899,49.5238
0.0887251,48.977
0.0899915,48.4457
0.0911131,47.9652
0.0918188,47.6684
0.0918541,47.6859
0.0918827,47.7088
0.0919184,47.7294
0.0919547,47.7483
0.0919957,47.7664
0.0920357,47.7849
0.092077,47.8043
0.0921135,47.8246
0.0921514,47.8456
0.0921852,47.8672
0.0922184,47.8891
0.0922534,47.9114
0.0922908,47.9341
0.0923216,47.9572
0.0923547,47.9805
0.0923903,48.0039
0.0924229,48.0275
0.0924589,48.0508
0.0924945,48.0742
0.0925333,48.0977
0.0925688,48.1212
0.0926072,48.1448
0.0926482,48.1686
0.092689,48.1923
0.0927274,48.216
0.0927686,48.2395
0.0928132,48.2628
0.0928576,48.2864
0.0929019,48.3098
0.0929455,48.3338
0.0929911,48.3581
0.0930333,48.3826
0.0930774,48.4076
0.0931213,48.4328
0.0931647,48.4582
0.0932076,48.4837
0.09325,48.5095
0.0932951,48.5355
0.0933366,48.5618
0.0933778,48.5882
0.0934221,48.6145
0.0934663,48.6409
0.0935108,48.6671
0.0935523,48.6934
0.0935967,48.7197
0.0936434,48.7464
0.0936889,48.7733
0.0937342,48.8007
0.0937791,48.8281
0.0938265,48.8557
0.0938742,48.8832
0.0939223,48.9104
0.0939705,48.9378
0.0940189,48.9649
0.0940675,48.992
0.0941162,49.0191
0.0941653,49.0458
0.0942177,49.0724
0.094265,49.0988
0.0943186,49.1248
0.0943701,49.1505
0.0944245,49.1762
0.0944819,49.2018
0.0945372,49.227
0.0945961,49.2519
0.0946591,49.2761
0.0947244,49.2993
0.0947883,49.3217
0.0948574,49.3433
0.0949275,49.364
0.0949981,49.3848
0.0950691,49.4052
0.0951397,49.4257
0.0952103,49.4463
0.0952804,49.4673
0.0953505,49.4883
0.0954187,49.51
0.0954826,49.5326
0.0955474,49.5561
0.0956104,49.5802
0.0956723,49.6051
0.0957334,49.6303
0.0957944,49.6555
0.095855,49.6812
0.0959179,49.7069
0.0959766,49.7333
0.0960374,49.76
0.0960972,49.7874
0.0961559,49.8152
0.0962131,49.8437
0.0962691,49.8727
0.0963237,49.9025
0.0963771,49.933
0.0964286,49.9643
0.0964782,49.9962
0.0965287,50.0294
0.0965771,50.0636
0.0966234,50.0988
0.0966706,50.1349
0.0967159,50.172
0.0967595,50.2101
0.0968041,50.2487
0.096847,50.2885
0.096888,50.329
0.0969279,50.3703
0.0969693,50.4118
0.0970099,50.454
0.0970473,50.4962
0.0970871,50.5387
0.0971267,50.5814
0.0971663,50.6242
0.0972051,50.6671
0.0972433,50.7104
0.0972809,50.7541
0.0973215,50.7978
0.0973613,50.8415
0.0974009,50.8856
0.0974433,50.9296
0.0974853,50.974
0.0975268,51.0185
0.0975706,51.0634
0.0976112,51.1083
0.0976546,51.1532
0.0976946,51.1986
0.0977342,51.244
0.0977766,51.2895
0.0978188,51.3349
0.0978636,51.3808
0.0979109,51.4267
0.0979547,51.4728
0.098001,51.5194
0.0980472,51.5658
0.0980937,51.6122
0.0981435,51.6583
0.0981943,51.704
0.0982458,51.7494
0.0982978,51.7943
0.0983474,51.839
0.0983979,51.8834
0.0984463,51.9274
0.0985016,51.9709
0.0985519,52.0141
0.0986058,52.0568
0.0986625,52.0995
0.0987162,52.1425
0.0987727,52.1852
0.0988292,52.2282
0.0988859,52.2711
0.0989429,52.3136
0.0990035,52.3561
0.0990586,52.3983
0.0991201,52.4401
0.099179,52.4818
0.0992357,52.5231
0.0992986,52.5644
0.0993611,52.6056
0.0994245,52.6466
0.0994856,52.6874
0.0995495,52.7282
0.0996162,52.7689
0.0996839,52.8092
0.0997516,52.8495
0.0998198,52.8896
0.099888,52.9296
0.0999548,52.9689
0.100022,53.008
0.100091,53.0463
0.10016,53.0846
0.10023,53.1222
0.100301,53.1596
0.100369,53.1969
0.100444,53.2338
0.100516,53.2704
0.100593,53.3065
0.100671,53.3419
0.100747,53.3766
0.100828,53.4105
0.100907,53.444
0.100986,53.4772
0.101063,53.5102
0.101144,53.5431
0.101224,53.5758
0.101307,53.6088
0.101388,53.6425
0.101468,53.6767
0.101546,53.7121
0.101625,53.7487
0.101699,53.786
0.101771,53.8241
0.101844,53.8627
0.101915,53.902
0.101984,53.9416
0.10205,53.9811
0.102119,54.0207
0.102188,54.0605
0.102257,54.1002
0.102326,54.1398
0.102399,54.1791
0.102468,54.2187
0.102541,54.2577
0.102616,54.297
0.102689,54.3366
0.102758,54.3764
0.102825,54.4167
0.102895,54.4574
0.10296,54.4989
0.103024,54.5412
0.103086,54.5841
0.103152,54.6278
0.103216,54.6728
0.103275,54.7187
0.103338,54.7655
0.103396,54.8134
0.103455,54.862
0.103511,54.911
0.103568,54.9604
0.103625,55.0102
0.103677,55.0607
0.103729,55.1115
0.103783,55.1627
0.103833,55.2145
0.103885,55.2663
0.103937,55.3183
0.103989,55.3705
0.104037,55.423
0.104091,55.4755
0.104145,55.5282
0.104196,55.581
0.104244,55.6334
0.104295,55.6857
0.10435,55.7377
0.104404,55.7892
0.104458,55.84
0.104518,55.8898
0.104582,55.9389
0.104649,55.987
0.10472,56.0338
0.104794,56.0793
0.104872,56.123
0.104955,56.1647
0.105042,56.204
0.105133,56.2401
0.105233,56.2733
0.105333,56.3035
0.105441,56.3312
0.105557,56.3565
0.105675,56.3798
0.105796,56.401
0.105923,56.4212
0.106051,56.4407
0.106176,56.4606
0.1063,56.482
0.106411,56.5055
0.10652,56.5318
0.10662,56.5605
0.106718,56.5917
0.10681,56.6259
0.106897,56.6627
0.10698,56.7023
0.107055,56.7448
0.107131,56.7895
0.107201,56.8361
0.107269,56.8842
0.107333,56.9333
0.107395,56.9833
0.107455,57.0343
0.107515,57.0858
0.107569,57.1381
0.107622,57.1911
0.107676,57.245
0.107726,57.2995
0.107781,57.3544
0.107832,57.4096
0.107889,57.4652
0.107941,57.5214
0.107993,57.5778
0.108043,57.6349
0.10809,57.6923
0.108139,57.7499
0.10819,57.808
0.108238,57.8661
0.108289,57.9247
0.108341,57.9835
0.108395,58.0434
0.108444,58.1037
0.108496,58.1645
0.108546,58.2255
0.108594,58.2868
0.108642,58.348
0.10869,58.4088
0.108741,58.4699
0.108788,58.5312
0.108833,58.5927
0.108879,58.6542
0.108923,58.716
0.108972,58.778
0.109021,58.84
0.10907,58.902
0.109118,58.9643
0.109162,59.0272
0.109206,59.0902
0.109251,59.1537
0.109293,59.2177
0.109337,59.2826
0.109379,59.3476
0.109424,59.413
0.109468,59.4789
0.109514,59.5448
0.109559,59.6117
0.109604,59.6786
0.109645,59.7455
0.109683,59.8129
0.109724,59.8798
0.109765,59.9472
0.109807,60.0141
0.109848,60.0814
0.109891,60.1488
0.109931,60.2162
0.109974,60.2841
0.11002,60.352
0.110062,60.4203
0.110103,60.4887
0.110144,60.557
0.110182,60.6259
0.110221,60.6952
0.110265,60.7655
0.110305,60.8363
0.110346,60.9076
0.110389,60.9794
0.110434,61.0517
0.110477,61.1249
0.11052,61.1981
0.110559,61.2719
0.110594,61.3461
0.110632,61.4208
0.110672,61.4955
0.110709,61.5702
0.110751,61.6454
0.110787,61.7206
0.11083,61.7953
0.110871,61.8705
0.110913,61.9462
0.110952,62.0214
0.110993,62.0971
0.111031,62.1723
0.111072,62.248
0.111117,62.3236
0.111161,62.3988
0.111208,62.4745
0.111255,62.5502
0.111303,62.6254
0.111353,62.7006
0.111405,62.7753
0.111451,62.85
0.111504,62.9242
0.111551,62.998
0.111602,63.0712
0.111655,63.1444
0.111711,63.2172
0.111767,63.2895
0.111827,63.3617
0.111888,63.433
0.111947,63.5043
0.112008,63.5746
0.112069,63.6435
0.11214,63.7104
0.112372,63.6994
0.116003,62.051
0.119971,60.2229
0.123999,58.3947
0.127997,56.5588
0.132025,54.7151
0.136084,52.8635
0.140112,51.0041
0.144049,49.1369
0.147894,47.2619
0.151495,45.4494
0.151618,45.2756
0.151383,45.2599
0.151143,45.2423
0.150904,45.2218
0.150664,45.2016
0.15042,45.1832
0.150174,45.1674
0.149929,45.1539
0.14968,45.142
0.14943,45.1312
0.149176,45.122
0.14892,45.1146
0.148667,45.109
0.148421,45.1043
0.148187,45.0992
0.147956,45.0941
0.147732,45.0887
0.147511,45.0831
0.147291,45.0773
0.14707,45.0715
0.146854,45.0651
0.146643,45.0575
0.146446,45.0476
0.146257,45.035
0.146078,45.0189
0.145913,44.9989
0.14576,44.9746
0.145614,44.9466
0.145479,44.9151
0.145353,44.8809
0.145236,44.8443
0.145126,44.8065
0.145026,44.7674
0.144928,44.7274
0.144837,44.6876
0.144751,44.6475
0.144663,44.6085
0.144575,44.5702
0.144483,44.5326
0.144391,44.4957
0.144304,44.4593
0.144213,44.4229
0.144128,44.3871
0.144042,44.3512
0.143956,44.3158
0.143875,44.2804
0.143797,44.245
0.143722,44.2086
0.143651,44.1707
0.143588,44.1314
0.143527,44.0904
0.143474,44.0475
0.143421,44.0028
0.143373,43.9571
0.143334,43.9098
0.143298,43.8614
0.143268,43.8114
0.143243,43.7601
0.143226,43.7079
0.143209,43.6546
0.143195,43.6012
0.143181,43.5472
0.143171,43.493
0.143161,43.4391
0.14315,43.3851
0.143143,43.3311
0.143133,43.2772
0.143125,43.2232
0.143114,43.1698
0.143102,43.1168
0.143094,43.0645
0.143085,43.0125
0.143076,42.9608
0.143069,42.9093
0.143062,42.8578
0.143055,42.807
0.143048,42.7564
0.143041,42.7069
0.143032,42.6578
0.143028,42.6095
0.143023,42.5614
0.143017,42.5135
0.143011,42.4659
0.143003,42.419
0.142998,42.3726
0.142991,42.327
0.142982,42.2818
0.142975,42.2374
0.14297,42.1937
0.142963,42.1505
0.142958,42.108
0.142952,42.066
0.142944,42.025
0.142941,41.9845
0.142937,41.9444
0.142931,41.9051
0.142923,41.8665
0.142918,41.8285
0.142918,41.7906
0.142914,41.7535
0.142909,41.7166
0.142903,41.6803
0.142899,41.6441
0.142893,41.6087
0.142887,41.5738
0.142884,41.5392
0.142879,41.5047
0.142875,41.4703
0.142873,41.4364
0.142872,41.4029
0.142864,41.3702
0.142861,41.3382
0.142856,41.3067
0.14285,41.2758
0.14285,41.2453
0.142846,41.2151
0.142843,41.1851
0.142843,41.1561
0.142838,41.1277
0.142837,41.1001
0.142831,41.0731
0.142827,41.0468
0.142825,41.0212
0.142826,40.9958
0.142821,40.9712
0.142822,40.9471
0.142821,40.9238
0.142818,40.9012
0.142814,40.8794
0.142814,40.858
0.142814,40.8372
0.142812,40.817
0.142809,40.7973
0.142805,40.7783
0.142806,40.7597
0.142805,40.742
0.142805,40.7251
0.142801,40.7085
0.1428,40.6925
0.1428,40.6767
0.1428,40.6614
0.142801,40.6467
0.142799,40.6326
0.142798,40.6191
0.142798,40.6063
0.142797,40.5939
0.142799,40.5819
0.142797,40.5702
0.142797,40.5588
0.142797,40.5479
0.142798,40.5376
0.142798,40.5278
0.142799,40.5187
0.142799,40.5103
0.142801,40.5022
0.142803,40.4944
0.142804,40.487
0.142807,40.4799
0.142809,40.4733
0.14281,40.4671
0.142813,40.4615
0.142815,40.4564
0.142819,40.4517
0.142819,40.4473
0.142822,40.4431
0.142827,40.4392
0.142829,40.4357
0.142835,40.4326
0.142837,40.43
0.142842,40.4276
0.142847,40.4256
0.14285,40.4237
0.142854,40.4218
0.142858,40.4201
0.142861,40.4185
0.142864,40.4172
0.142866,40.4162
0.142867,40.4156
0.142874,40.4151
0.142878,40.4148
0.142881,40.4145
0.14289,40.4142
0.142899,40.4141
0.142911,40.4142
0.142918,40.4148
0.142931,40.4156
0.14294,40.4167
0.142952,40.418
0.142965,40.4192
0.142979,40.4204
0.142994,40.4217
0.143008,40.4232
0.143025,40.425
0.143041,40.4271
0.143057,40.4292
0.143076,40.4314
0.143097,40.4336
0.143116,40.4356
0.143138,40.4377
0.14316,40.4398
0.143184,40.4422
0.143208,40.4447
0.143232,40.4473
0.143258,40.4499
0.143285,40.4523
0.143315,40.4546
0.143343,40.4568
0.143373,40.4589
0.143404,40.4611
0.143434,40.4634
0.143467,40.4657
0.1435,40.468
0.143533,40.47
0.143567,40.472
0.143604,40.4738
0.143641,40.4756
0.143678,40.4773
0.143715,40.4792
0.143754,40.4811
0.143795,40.4829
0.143835,40.4844
0.143878,40.4858
0.14392,40.487
0.143967,40.4881
0.144011,40.4893
0.144055,40.4906
0.144101,40.492
0.144147,40.4935
0.144194,40.4948
0.144241,40.4961
0.144288,40.4971
0.144339,40.4981
0.144386,40.499
0.144437,40.4998
0.144487,40.5007
0.144541,40.5014
0.144595,40.502
0.144649,40.5023
0.144705,40.5022
0.14476,40.502
0.144819,40.5018
0.144877,40.5017
0.144936,40.5016
0.144994,40.5015
0.145052,40.5014
0.145111,40.5012
0.14517,40.5009
0.145231,40.5006
0.14529,40.5004
0.145348,40.5003
0.145409,40.5004
0.145469,40.5008
0.145527,40.5012
0.145586,40.5017
0.145644,40.5022
0.145704,40.5027
0.145763,40.5035
0.145822,40.5046
0.14588,40.5061
0.145934,40.508
0.145991,40.51
0.146045,40.5121
0.146101,40.5142
0.146161,40.5164
0.146217,40.5187
0.146273,40.521
0.146332,40.5234
0.146388,40.5258
0.146448,40.528
0.146508,40.5298
0.146569,40.5312
0.146633,40.5322
0.146696,40.5331
0.146761,40.5337
0.146827,40.5343
0.146892,40.5351
0.146957,40.5359
0.147025,40.5368
0.14709,40.5377
0.147157,40.5388
0.147221,40.5402
0.147285,40.5419
0.14735,40.5442
0.147411,40.5469
0.147474,40.5501
0.147534,40.5535
0.147593,40.5572
0.147652,40.5612
0.147713,40.5654
0.147773,40.57
0.14783,40.5749
0.147889,40.5801
0.147948,40.5854
0.148006,40.5909
0.148065,40.5963
0.148126,40.6017
0.148185,40.607
0.148246,40.6125
0.148307,40.6181
0.148367,40.6242
0.148427,40.6305
0.148485,40.6374
0.148546,40.6444
0.148606,40.6519
0.148665,40.6599
0.148723,40.6686
0.148778,40.6782
0.148832,40.6887
0.148884,40.7002
0.148934,40.7125
0.148983,40.7257
0.14903,40.7395
0.149075,40.754
0.149119,40.7694
0.149164,40.7854
0.149207,40.8023
0.14925,40.8199
0.149291,40.838
0.149331,40.8564
0.14937,40.8752
0.149412,40.8941
0.149454,40.9133
0.149496,40.9324
0.149534,40.9519
0.149579,40.9711
0.14962,40.9904
0.149665,41.0096
0.149707,41.0285
0.149756,41.0468
0.149803,41.065
0.14985,41.0828
0.149898,41.1007
0.149948,41.1184
0.149996,41.1361
0.150046,41.1539
0.150097,41.1716
0.150144,41.1894
0.150191,41.2074
0.150244,41.2255
0.150289,41.2441
0.150339,41.2635
0.150389,41.283
0.150437,41.3032
0.150482,41.3237
0.150532,41.3446
0.150578,41.3659
0.150625,41.3878
0.150672,41.4102
0.150723,41.4333
0.150769,41.4571
0.150815,41.4816
0.150861,41.507
0.150902,41.5334
0.150947,41.5609
0.150987,41.5894
0.15102,41.6197
0.151053,41.6514
0.151082,41.6849
0.151111,41.72
0.151135,41.7567
0.151158,41.7945
0.151178,41.8338
0.151196,41.8743
0.151211,41.9163
0.151226,41.9593
0.151242,42.0035
0.151253,42.0489
0.151265,42.0953
0.151278,42.1424
0.151286,42.1903
0.151299,42.2388
0.151307,42.2882
0.151317,42.338
0.151326,42.3885
0.151333,42.4398
0.151337,42.4913
0.151343,42.543
0.151351,42.5953
0.151359,42.6478
0.151365,42.701
0.151372,42.755
0.151382,42.8094
0.151389,42.8646
0.151395,42.9207
0.151403,42.9771
0.15141,43.034
0.151419,43.0914
0.151431,43.1492
0.151441,43.2074
0.151451,43.2657
0.15146,43.3243
0.151469,43.3834
0.151477,43.4425
0.151485,43.5018
0.151496,43.5611
0.151507,43.6207
0.151516,43.6805
0.151528,43.741
0.151538,43.8021
0.15155,43.8636
0.151558,43.9259
0.151568,43.9884
0.151583,44.0509
0.151595,44.1138
0.151609,44.1773
0.151619,44.2413
0.151627,44.3062
0.151638,44.3712
0.151647,44.4371
0.151658,44.503
0.151669,44.5699
0.151677,44.6373
0.15169,44.7052
0.151701,44.7745
0.15171,44.8443
0.15172,44.9151
0.151729,44.9869
0.15174,45.0587
0.151748,45.1309
0.151755,45.2032
0.151764,45.276
0.151769,45.3497
0.151775,45.4234
0.151781,45.4981
0.151788,45.5733
0.151794,45.649
0.151799,45.7252
0.151808,45.8018
0.151816,45.88
0.151822,45.9581
0.151826,46.0377
0.151829,46.1178
0.151833,46.1988
0.151835,46.2803
0.151839,46.3624
0.151842,46.4454
0.151849,46.5294
0.151851,46.6138
0.15186,46.6993
0.151866,46.7852
0.151872,46.8717
0.151878,46.9591
0.151883,47.046
0.151888,47.1339
0.151895,47.2213
0.151899,47.3096
0.151904,47.398
0.151911,47.4874
0.151914,47.5772
0.151922,47.6676
0.151929,47.7584
0.151934,47.8492
0.15194,47.941
0.151947,48.0328
0.151952,48.1256
0.151956,48.2193
0.151962,48.3136
0.151966,48.4083
0.151979,48.503
0.151989,48.5982
0.152001,48.6934
0.152016,48.7887
0.152024,48.8844
0.152032,48.9801
0.152039,49.0762
0.152046,49.1724
0.152054,49.2681
0.152066,49.3638
0.152074,49.4591
0.152089,49.5543
0.152104,49.65
0.152117,49.7457
0.15213,49.8419
0.15214,49.9386
0.152155,50.0352
0.152169,50.1319
0.152183,50.2291
0.152199,50.3267
0.152218,50.4244
0.152239,50.5225
0.152256,50.6207
0.152273,50.7188
0.15229,50.8175
0.152304,50.9161
0.152319,51.0142
0.152334,51.1124
0.152351,51.2105
0.152372,51.3082
0.15239,51.4063
0.152414,51.5045
0.152431,51.6031
0.152448,51.7017
0.152467,51.8004
0.152489,51.8995
0.15251,51.9986
0.152535,52.0977
0.152565,52.1969
0.152594,52.296
0.152623,52.3956
0.152649,52.4957
0.152672,52.5953
0.152699,52.6949
0.152729,52.794
0.152759,52.8931
0.152792,52.9918
0.152829,53.0909
0.152858,53.1905
0.152891,53.2896
0.152923,53.3892
0.152955,53.4888
0.15299,53.5885
0.153025,53.6886
0.153062,53.7882
0.153102,53.8883
0.153141,53.9884
0.153178,54.0889
0.153217,54.189
0.153254,54.2891
0.153294,54.3892
0.153332,54.4888
0.153369,54.5885
0.153413,54.6886
0.153455,54.7887
0.153495,54.8887
0.153531,54.9893
0.153569,55.0904
0.153609,55.1915
0.15365,55.2926
0.153696,55.3936
0.153742,55.4952
0.153787,55.5972
0.153831,55.6988
0.153873,55.8009
0.153917,55.9029
0.153962,56.005
0.154006,56.107
0.154051,56.2091
0.154099,56.3106
0.154149,56.4132
0.154195,56.5157
0.154238,56.6182
0.154286,56.7213
0.154337,56.8248
0.154388,56.9278
0.154446,57.0303
0.154501,57.1329
0.154561,57.2354
0.154613,57.3385
0.154668,57.441
0.154727,57.543
0.154785,57.6446
0.154846,57.7452
0.154912,57.8453
0.154974,57.9459
0.155034,58.046
0.155096,58.1466
0.155161,58.2471
0.155227,58.3472
0.155296,58.4473
0.155373,58.5465
0.155446,58.6456
0.155515,58.7447
0.155583,58.8438
0.155648,58.9429
0.155713,59.0416
0.155779,59.1402
0.155846,59.2388
0.155912,59.337
0.155978,59.4361
0.15604,59.5352
0.1561,59.6353
0.156162,59.7359
0.156224,59.8365
0.156286,59.9371
0.156352,60.0372
0.156419,60.1368
0.156483,60.2364
0.156545,60.3355
0.156603,60.4351
0.156665,60.5343
0.156729,60.6329
0.156796,60.731
0.15686,60.8292
0.156924,60.9268
0.156988,61.0255
0.157048,61.1246
0.157113,61.2237
0.157174,61.3228
0.157245,61.4224
0.157315,61.5216
0.157382,61.6212
0.157447,61.7208
0.157511,61.8199
0.157576,61.919
0.157645,62.0177
0.157713,62.1158
0.157787,62.2135
0.157859,62.3106
0.157929,62.4073
0.157999,62.5035
0.158074,62.5997
0.158149,62.6949
0.15823,62.7896
0.158315,62.8834
0.158401,62.9762
0.158489,63.0684
0.158576,63.1597
0.158663,63.2496
0.158753,63.3385
0.158847,63.4259
0.158945,63.5123
0.159044,63.5977
0.159141,63.6832
0.159237,63.7686
0.15933,63.8541
0.159426,63.94
0.159521,64.0255
0.159623,64.1114
0.159723,64.1973
0.15982,64.2843
0.159911,64.3721
0.160001,64.4605
0.160088,64.5494
0.160177,64.6383
0.16027,64.7266
0.160363,64.815
0.160453,64.9039
0.16054,64.9932
0.160627,65.0836
0.160711,65.1749
0.160801,65.2662
0.16089,65.358
0.160985,65.4493
0.161077,65.5416
0.161167,65.6339
0.161254,65.7266
0.161339,65.8199
0.161422,65.9132
0.16151,66.0059
0.161597,66.0987
0.161685,66.1905
0.16177,66.2828
0.161856,66.3751
0.161943,66.4678
0.16203,66.5606
0.162122,66.6534
0.162215,66.7462
0.162308,66.8389
0.162395,66.9312
0.162483,67.024
0.162567,67.1163
0.162648,67.2091
0.162729,67.3018
0.162816,67.3946
0.162897,67.4879
0.162975,67.5816
0.16305,67.6763
0.163126,67.7716
0.163201,67.8673
0.163275,67.9635
0.163355,68.0601
0.16343,68.1568
0.163505,68.254
0.163574,68.3512
0.163644,68.4478
0.163712,68.544
0.163782,68.6397
0.163856,68.734
0.163935,68.8282
0.164011,68.922
0.164084,69.0157
0.164155,69.1095
0.164228,69.2027
0.164306,69.296
0.164387,69.3887
0.164471,69.4815
0.164552,69.5743
0.164636,69.6671
0.164714,69.7603
0.164794,69.8536
0.164872,69.9464
0.164955,70.0382
0.165043,70.129
0.165133,70.2188
0.165219,70.3077
0.165311,70.3956
0.165399,70.482
0.165498,70.566
0.165606,70.6461
0.165729,70.7183
0.165893,70.774
0.166185,70.7664
0.166579,70.7093
0.16701,70.6321
0.167466,70.5408
0.167947,70.4393
0.168439,70.3309
0.168943,70.2171
0.169442,70.1014
0.169929,69.9881
0.170373,69.888
0.170682,69.8482
0.170893,69.8557
0.171063,69.8819
0.171204,69.9202
0.171331,69.9671
0.171441,70.0203
0.171545,70.0782
0.171636,70.1397
0.171718,70.2042
0.171795,70.2706
0.171869,70.3385
0.171941,70.4078
0.172012,70.4776
0.172085,70.547
0.172158,70.6173
0.172229,70.6886
0.172299,70.7598
0.172367,70.8326
0.172433,70.9053
0.172499,70.9791
0.172571,71.0523
0.172642,71.1261
0.172713,71.1998
0.172786,71.274
0.172857,71.3492
0.172924,71.4249
0.172991,71.5011
0.173057,71.5772
0.173123,71.6534
0.173188,71.7301
0.173253,71.8067
0.173319,71.8839
0.173385,71.962
0.173446,72.0406
0.173505,72.1202
0.173565,72.2003
0.173624,72.2813
0.173681,72.3634
0.173743,72.4459
0.173801,72.5284
0.173865,72.6114
0.173924,72.6954
0.17398,72.7794
0.174032,72.8634
0.174084,72.9478
0.174135,73.0328
0.174184,73.1168
0.174237,73.2012
0.174292,73.2852
0.174344,73.3697
0.174401,73.4547
0.174451,73.5396
0.174498,73.6251
0.174548,73.7105
0.174597,73.796
0.17465,73.8819
0.174702,73.9674
0.17476,74.0528
0.174818,74.1387
0.174872,74.2252
0.174924,74.3111
0.174973,74.3966
0.175025,74.4825
0.175074,74.5679
0.175127,74.6534
0.175181,74.7384
0.175238,74.8228
0.175295,74.9078
0.17535,74.9918
0.175406,75.0762
0.175458,75.1602
0.175513,75.2447
0.175572,75.3287
0.175628,75.4122
0.175694,75.4957
0.175757,75.5787
0.175823,75.6622
0.175887,75.7447
0.175952,75.8272
0.176015,75.9088
0.17608,75.9898
0.176153,76.0699
0.176223,76.1495
0.176294,76.2286
0.17637,76.3072
0.176443,76.3858
0.176518,76.4635
0.176593,76.5406
0.176671,76.6168
0.176751,76.6929
0.176837,76.7686
0.176923,76.8433
0.177008,76.9171
0.177098,76.9903
0.177187,77.0626
0.177278,77.1339
0.177367,77.2042
0.17746,77.2745
0.177552,77.3438
0.177647,77.4127
0.177743,77.482
0.177836,77.5504
0.177927,77.6187
0.17802,77.6876
0.178111,77.7559
0.178204,77.8248
0.1783,77.8931
0.178397,77.9615
0.178497,78.0299
0.178594,78.0982
0.178691,78.1666
0.178784,78.2349
0.178878,78.3033
0.178972,78.3717
0.179065,78.4405
0.179157,78.5094
0.179251,78.5797
0.179342,78.6505
0.179429,78.7222
0.179514,78.795
0.179597,78.8682
0.179681,78.9429
0.17976,79.0191
0.179839,79.0958
0.179922,79.1734
0.180003,79.252
0.180084,79.3311
0.180161,79.4102
0.180236,79.4893
0.180313,79.5689
0.180387,79.6475
0.180466,79.7262
0.180547,79.8033
0.180632,79.8804
0.180718,79.9571
0.180799,80.0328
0.180882,80.108
0.180968,80.1827
0.181055,80.2569
0.181146,80.3311
0.18124,80.4049
0.181335,80.4786
0.181426,80.5528
0.181517,80.6265
0.181606,80.6998
0.181695,80.7735
0.181776,80.8477
0.181861,80.9224
0.181944,80.9971
0.18203,81.0719
0.182113,81.1475
0.182194,81.2232
0.182272,81.2989
0.182349,81.3756
0.182422,81.4527
0.182497,81.5303
0.182572,81.608
0.182652,81.6856
0.182728,81.7637
0.182806,81.8414
0.182883,81.9195
0.182955,81.9967
0.183028,82.0738
0.183104,82.1495
0.183181,82.2242
0.183264,82.2979
0.183348,82.3697
0.183443,82.439
0.183534,82.5059
0.183635,82.5694
0.183745,82.629
0.183864,82.6839
0.183995,82.7325
0.184147,82.7725
0.184378,82.7753
0.189901,80.2285
0.196524,77.1347
0.203177,74.041
0.209799,70.9472
0.216452,67.8535
0.223105,64.7441
0.229757,61.6347
0.236227,58.5097
0.242544,55.3847
0.248587,52.291
0.249178,51.7441
0.24864,51.723
0.248106,51.6982
0.247572,51.6714
0.247027,51.6461
0.246489,51.6203
0.245966,51.5906
0.245474,51.5533
0.245007,51.5067
0.24456,51.449
0.244141,51.3802
0.243746,51.3016
0.243382,51.2108
0.243054,51.1043
0.242783,50.9798
0.24256,50.8362
0.242365,50.6771
0.242189,50.5071
0.242035,50.3275
0.241907,50.136
0.241802,49.9349
0.241729,49.723
0.24169,49.5013
0.241667,49.2728
0.241645,49.0403
0.241626,48.8079
0.241606,48.5775
0.241585,48.3489
0.241562,48.1214
0.241549,47.8948
0.241542,47.6693
0.241532,47.4456
0.241519,47.222
0.2415,46.9993
0.241481,46.7786
0.241461,46.5589
0.241437,46.3401
0.241414,46.1224
0.241403,45.9046
0.241391,45.6878
0.241378,45.471
0.241365,45.2532
0.241348,45.0374
0.241329,44.8216
0.241309,44.6068
0.241289,44.3919
0.241277,44.178
0.241273,43.9632
0.241271,43.7493
0.241263,43.5355
0.241252,43.3226
0.241241,43.1097
0.241226,42.8978
0.241208,42.6868
0.241195,42.4749
0.241187,42.264
0.241185,42.053
0.24118,41.8421
0.241168,41.6321
0.241153,41.4222
0.241135,41.2132
0.241116,41.0042
0.241094,40.7962
0.241075,40.5872
0.241062,40.3792
0.241058,40.1702
0.241047,39.9612
0.241029,39.7523
0.24101,39.5443
0.24099,39.3362
0.240969,39.1292
0.240946,38.9222
0.240933,38.7151
0.240927,38.5091
0.240923,38.303
0.24092,38.098
0.240905,37.8948
0.24089,37.6927
0.240873,37.4935
0.240859,37.2952
0.24084,37.098
0.240823,36.9017
0.240818,36.7064
0.240814,36.511
0.240807,36.3177
0.240791,36.1263
0.240773,35.9359
0.240756,35.7464
0.240738,35.5569
0.240721,35.3685
0.240701,35.18
0.240685,34.9935
0.240676,34.8069
0.240667,34.6214
0.240654,34.4368
0.240636,34.2532
0.240618,34.0696
0.240604,33.887
0.240589,33.7044
0.240568,33.5228
0.240548,33.3411
0.240532,33.1614
0.24052,32.9818
0.240515,32.8021
0.240506,32.6243
0.24049,32.4466
0.240474,32.2698
0.240458,32.0921
0.240446,31.9153
0.240431,31.7386
0.240413,31.5638
0.240395,31.388
0.240384,31.2142
0.240375,31.0403
0.240369,30.8665
0.240356,30.6927
0.24034,30.5198
0.240319,30.347
0.240301,30.1741
0.240282,30.0032
0.240258,29.8323
0.240232,29.6614
0.240213,29.4915
0.2402,29.3206
0.240189,29.1507
0.240179,28.9808
0.24016,28.8109
0.240141,28.6419
0.240114,28.4739
0.240093,28.306
0.240074,28.138
0.240051,27.971
0.240026,27.805
0.240008,27.639
0.239997,27.4749
0.239986,27.3118
0.239972,27.1497
0.239954,26.9886
0.239931,26.8284
0.239914,26.6693
0.239895,26.5091
0.239881,26.3499
0.239864,26.1927
0.239844,26.0374
0.239823,25.8831
0.239808,25.7298
0.239797,25.5784
0.239787,25.4271
0.239773,25.2767
0.239753,25.1282
0.239728,24.9798
0.239703,24.8333
0.239682,24.6878
0.23966,24.5423
0.239636,24.3987
0.23961,24.2552
0.239587,24.1116
0.239568,23.97
0.23955,23.8275
0.239536,23.6868
0.239515,23.5472
0.239494,23.4085
0.23947,23.2698
0.239449,23.1312
0.239428,22.9925
0.239409,22.8548
0.239391,22.7171
0.239367,22.5814
0.239337,22.4466
0.239311,22.3138
0.239292,22.181
0.239275,22.0491
0.23926,21.9173
0.239247,21.7855
0.239227,21.6556
0.239202,21.5257
0.239183,21.3958
0.23916,21.2669
0.23914,21.137
0.23912,21.0081
0.239099,20.8792
0.239078,20.7503
0.239057,20.6234
0.239037,20.4964
0.239021,20.3704
0.239009,20.2454
0.238994,20.1209
0.238977,19.9974
0.238954,19.8734
0.238931,19.7503
0.238909,19.6273
0.238884,19.5047
0.238861,19.3821
0.238843,19.261
0.238816,19.1404
0.23879,19.0208
0.238763,18.9017
0.238738,18.7835
0.238714,18.6658
0.238695,18.5491
0.238677,18.4324
0.238658,18.3172
0.238631,18.202
0.238608,18.0872
0.238581,17.9725
0.238555,17.8572
0.238532,17.742
0.238513,17.6268
0.238498,17.513
0.238481,17.3997
0.238458,17.2879
0.238436,17.1771
0.238415,17.0677
0.238401,16.9583
0.238386,16.8494
0.238376,16.7415
0.238363,16.6351
0.238347,16.5296
0.238328,16.4256
0.238305,16.3221
0.238284,16.2191
0.238262,16.1165
0.238246,16.014
0.238228,15.9124
0.23821,15.8118
0.238193,15.7127
0.23817,15.6151
0.238144,15.5184
0.238122,15.4227
0.238098,15.3279
0.238082,15.2332
0.238067,15.14
0.238048,15.0472
0.238034,14.9559
0.238015,14.8655
0.237994,14.7762
0.237973,14.6878
0.23795,14.5989
0.237931,14.5106
0.237908,14.4222
0.237889,14.3348
0.237868,14.2484
0.237844,14.1629
0.237824,14.0789
0.2378,13.9954
0.237777,13.9124
0.237754,13.8299
0.237729,13.7479
0.237705,13.6668
0.237681,13.5872
0.23766,13.5091
0.237636,13.4324
0.237614,13.3563
0.237594,13.2806
0.23757,13.2049
0.237549,13.1292
0.237524,13.0545
0.237501,12.9803
0.237475,12.907
0.23745,12.8348
0.237426,12.7635
0.237399,12.6922
0.237378,12.6209
0.237356,12.5501
0.237333,12.4798
0.237311,12.41
