"Maximum force",78.0191,"N"
"Gage length ",0.898562,"mm"
"Strain energy",8.44708,"mJ"
"Deformation at maximum force",0.17335,"mm"
"Standard travel","Standard force"
"mm","N"
0,0.280996
-1.81608e-007,0.281082
-6.10016e-007,0.281285
-1.04029e-006,0.28149
1.17999e-006,0.28181
9.22941e-007,0.281936
5.59725e-007,0.282108
1.1269e-007,0.28232
-3.32482e-007,0.282531
-8.95001e-007,0.282798
-1.39046e-006,0.283033
9.63919e-007,0.28329
6.39819e-007,0.283448
2.26311e-007,0.283644
1.42492e-007,0.283683
1.09198e-007,0.283699
-1.38534e-007,0.283816
-2.70782e-007,0.283879
-5.35278e-007,0.284004
-7.16886e-007,0.284091
-9.81381e-007,0.284216
-1.32783e-006,0.28438
-1.52714e-006,0.284474
-1.59326e-006,0.284506
-1.72551e-006,0.284569
-2.13902e-006,0.284764
-2.32062e-006,0.284851
-2.74903e-006,0.285054
-2.89897e-006,0.285125
-3.18023e-006,0.285258
-3.4112e-006,0.285368
-3.49456e-006,0.285407
-3.6268e-006,0.28547
-3.69293e-006,0.285501
-3.92389e-006,0.285611
-4.30387e-006,0.285791
-4.53577e-006,0.285901
-4.86546e-006,0.286057
-5.06476e-006,0.286151
-5.23054e-006,0.28623
-5.24707e-006,0.286238
-5.39515e-006,0.286308
-5.46174e-006,0.286339
-5.743e-006,0.286472
-5.82542e-006,0.286512
-5.8423e-006,0.28652
-5.90843e-006,0.286551
-5.72682e-006,0.286465
-5.67723e-006,0.286441
-5.54498e-006,0.286379
-5.6437e-006,0.286425
-5.79271e-006,0.286496
-5.99108e-006,0.28659
-6.27048e-006,0.286723
-6.43719e-006,0.286802
-6.70168e-006,0.286927
-7.0649e-006,0.287099
-7.36292e-006,0.28724
-7.67584e-006,0.287389
-8.02416e-006,0.287553
-8.22253e-006,0.287648
-8.22291e-006,0.287648
-8.28904e-006,0.287679
-8.00964e-006,0.287547
-7.8597e-006,0.287476
-7.56168e-006,0.287335
-7.1817e-006,0.287155
-7.16493e-006,0.287146
-6.95073e-006,0.287045
-7.04898e-006,0.287091
-7.09858e-006,0.287115
-7.24666e-006,0.287186
-7.46179e-006,0.287287
-7.6434e-006,0.287373
-7.89113e-006,0.287491
-8.02431e-006,0.287554
-8.354e-006,0.28771
-8.33875e-006,0.287703
-8.73363e-006,0.287891
-8.53712e-006,0.287797
-8.471e-006,0.287765
-8.25679e-006,0.287664
-8.05842e-006,0.28757
-8.15667e-006,0.287616
-8.15679e-006,0.287617
-8.18985e-006,0.287632
-8.23944e-006,0.287656
-8.15702e-006,0.287617
-8.17332e-006,0.287624
-8.22291e-006,0.287648
-8.40452e-006,0.287734
-8.61965e-006,0.287836
-8.81803e-006,0.28793
-9.0164e-006,0.288024
-9.16448e-006,0.288094
-9.14876e-006,0.288087
-9.04958e-006,0.28804
-9.26378e-006,0.288141
-9.1157e-006,0.288071
-9.19812e-006,0.28811
-9.14876e-006,0.288087
-9.16518e-006,0.288094
-9.18171e-006,0.288102
-9.01686e-006,0.288024
-9.03293e-006,0.288032
-9.19777e-006,0.28811
-9.13258e-006,0.288079
-9.21454e-006,0.288118
-9.47903e-006,0.288243
-9.66064e-006,0.288329
-9.79289e-006,0.288392
-1.01058e-005,0.288541
-1.02064e-005,0.288588
-1.04877e-005,0.288721
-1.0422e-005,0.28869
-1.04546e-005,0.288706
-1.0537e-005,0.288745
-1.04714e-005,0.288714
-1.03391e-005,0.288651
-1.02399e-005,0.288604
-1.01244e-005,0.288549
-6.95049e-006,0.288416
-6.68972e-006,0.288299
-6.40846e-006,0.288165
-6.35817e-006,0.288142
-6.30858e-006,0.288118
-6.47342e-006,0.288196
-6.83664e-006,0.288368
-6.98565e-006,0.288439
-7.26691e-006,0.288572
-7.26725e-006,0.288572
-7.39949e-006,0.288635
-7.6137e-006,0.288737
-7.79624e-006,0.288823
-8.06073e-006,0.288948
-8.2917e-006,0.289058
-8.14362e-006,0.288988
-7.94525e-006,0.288894
-7.86283e-006,0.288855
-7.59833e-006,0.28873
-7.63093e-006,0.288745
-7.51544e-006,0.28869
-7.44932e-006,0.288659
-7.54804e-006,0.288705
-7.44932e-006,0.288659
-7.25095e-006,0.288565
-7.25071e-006,0.288565
-7.18459e-006,0.288533
-7.23395e-006,0.288557
-7.31684e-006,0.288596
-7.41602e-006,0.288643
-7.51521e-006,0.28869
-7.54827e-006,0.288705
-7.46585e-006,0.288667
-7.39973e-006,0.288635
-7.36666e-006,0.288619
-7.46538e-006,0.288666
-7.56457e-006,0.288713
-7.6144e-006,0.288737
-7.74664e-006,0.288799
-7.76317e-006,0.288807
-7.66445e-006,0.288761
-7.74641e-006,0.288799
-7.54897e-006,0.288706
-7.76317e-006,0.288807
-7.7632e-006,0.288807
-7.8128e-006,0.288831
-7.7632e-006,0.288808
-7.73014e-006,0.288792
-7.71361e-006,0.288784
-7.69708e-006,0.288776
-7.69708e-006,0.288776
-7.61465e-006,0.288737
-7.74597e-006,0.288799
-7.79626e-006,0.288823
-7.87868e-006,0.288862
-8.01093e-006,0.288925
-7.97833e-006,0.288909
-8.0277e-006,0.288933
-7.87961e-006,0.288863
-8.04353e-006,0.28894
-8.15994e-006,0.288995
-8.24236e-006,0.289035
-8.30849e-006,0.289066
-8.34178e-006,0.289082
-8.48986e-006,0.289152
-8.30876e-006,0.289066
-8.34182e-006,0.289082
-8.2594e-006,0.289042
-8.25916e-006,0.289042
-8.17674e-006,0.289003
-8.19292e-006,0.289011
-8.19303e-006,0.289011
-8.04495e-006,0.288941
-7.78046e-006,0.288816
-7.61468e-006,0.288737
-7.54856e-006,0.288706
-7.33342e-006,0.288604
-7.20117e-006,0.288541
-7.21759e-006,0.288549
-7.08627e-006,0.288486
-7.06893e-006,0.288478
-6.93668e-006,0.288416
-6.88709e-006,0.288392
-6.68871e-006,0.288298
-6.42422e-006,0.288173
-6.44063e-006,0.288181
-6.55612e-006,0.288235
-6.73773e-006,0.288321
-6.50769e-006,0.288212
-6.42434e-006,0.288173
-6.27626e-006,0.288102
-6.14308e-006,0.28804
-6.2092e-006,0.288071
-6.04436e-006,0.287993
-6.15937e-006,0.288047
-6.09372e-006,0.288016
-6.04389e-006,0.287993
-5.89581e-006,0.287923
-5.7468e-006,0.287852
-5.54843e-006,0.287758
-5.33329e-006,0.287656
-5.38242e-006,0.287679
-5.43201e-006,0.287703
-5.7617e-006,0.287859
-5.87811e-006,0.287914
-5.7468e-006,0.287852
-5.7298e-006,0.287844
-5.56496e-006,0.287766
-5.91141e-006,0.28793
-5.97753e-006,0.287961
-6.30722e-006,0.288117
-6.53912e-006,0.288228
-6.55635e-006,0.288235
-6.49069e-006,0.288204
-6.25972e-006,0.288095
-6.24238e-006,0.288087
-6.0943e-006,0.288017
-6.09348e-006,0.288016
-5.92864e-006,0.287938
-6.01059e-006,0.287977
-5.97776e-006,0.287961
-5.77939e-006,0.287867
-5.63131e-006,0.287797
-5.49906e-006,0.287734
-5.66298e-006,0.287812
-5.77893e-006,0.287867
-5.96053e-006,0.287953
-6.24179e-006,0.288086
-6.35774e-006,0.288141
-6.60547e-006,0.288259
-6.57311e-006,0.288243
-6.70443e-006,0.288306
-6.63923e-006,0.288275
-6.72166e-006,0.288314
-6.72169e-006,0.288314
-6.85394e-006,0.288376
-6.887e-006,0.288392
-6.83764e-006,0.288369
-6.95313e-006,0.288423
-6.67373e-006,0.288291
-6.57315e-006,0.288243
-6.47396e-006,0.288196
-6.35801e-006,0.288142
-6.53962e-006,0.288227
-6.37477e-006,0.28815
-6.45673e-006,0.288188
-6.37477e-006,0.288149
-6.25883e-006,0.288095
-6.11074e-006,0.288024
-6.02739e-006,0.287985
-6.14288e-006,0.28804
-6.30772e-006,0.288118
-6.55545e-006,0.288235
-6.62204e-006,0.288267
-6.77105e-006,0.288337
-6.80435e-006,0.288353
-6.68886e-006,0.288298
-6.73822e-006,0.288322
-6.63904e-006,0.288275
-6.95196e-006,0.288423
-6.87094e-006,0.288385
-6.73869e-006,0.288322
-6.82065e-006,0.288361
-6.67257e-006,0.288291
-6.70493e-006,0.288306
-6.4423e-006,0.288181
-6.52286e-006,0.28822
-6.57268e-006,0.288243
-6.77105e-006,0.288337
-6.70539e-006,0.288306
-6.82088e-006,0.288361
-6.68863e-006,0.288298
-6.47443e-006,0.288197
-6.39107e-006,0.288157
-6.17687e-006,0.288056
-6.22553e-006,0.288079
-6.20923e-006,0.288071
-6.2092e-006,0.288071
-6.29163e-006,0.28811
-5.96194e-006,0.287954
-6.0106e-006,0.287977
-6.02725e-006,0.287985
-6.06031e-006,0.288
-6.15949e-006,0.288047
-6.47242e-006,0.288196
-6.82073e-006,0.28836
-7.08523e-006,0.288486
-7.18441e-006,0.288533
-7.11876e-006,0.288502
-7.29943e-006,0.288588
-7.00327e-006,0.288448
-7.10153e-006,0.288494
-7.03587e-006,0.288463
-6.92038e-006,0.288408
-6.90362e-006,0.2884
-6.52364e-006,0.288221
-6.40769e-006,0.288165
-6.12829e-006,0.288033
-5.92899e-006,0.287938
-5.89523e-006,0.287922
-6.14296e-006,0.288039
-6.35717e-006,0.288141
-6.73715e-006,0.288321
-7.05193e-006,0.28847
-6.95321e-006,0.288424
-7.0687e-006,0.288478
-7.10176e-006,0.288494
-7.44821e-006,0.288658
-7.58046e-006,0.288721
-7.63075e-006,0.288745
-7.6474e-006,0.288753
-7.46579e-006,0.288667
-7.18639e-006,0.288534
-6.80455e-006,0.288354
-6.40781e-006,0.288165
-6.17684e-006,0.288055
-6.04459e-006,0.287993
-5.96124e-006,0.287954
-5.86205e-006,0.287907
-5.97754e-006,0.287961
-5.79593e-006,0.287875
-5.89465e-006,0.287922
-5.77963e-006,0.287867
-5.91095e-006,0.28793
-6.10932e-006,0.288024
-6.32445e-006,0.288126
-6.42411e-006,0.288173
-6.39128e-006,0.288157
-6.53936e-006,0.288227
-6.47416e-006,0.288197
-6.40804e-006,0.288165
-6.40759e-006,0.288165
-6.32517e-006,0.288126
-6.40712e-006,0.288165
-6.424e-006,0.288173
-6.42412e-006,0.288173
-6.62249e-006,0.288267
-6.65555e-006,0.288282
-6.52423e-006,0.28822
-6.3417e-006,0.288134
-6.22575e-006,0.288079
-6.22573e-006,0.288079
-6.55542e-006,0.288235
-6.52353e-006,0.28822
-6.57289e-006,0.288243
-6.50723e-006,0.288212
-6.07696e-006,0.288009
-5.84599e-006,0.287899
-5.63085e-006,0.287797
-5.56473e-006,0.287766
-5.7957e-006,0.287875
-5.76287e-006,0.287859
-5.66368e-006,0.287812
-5.72934e-006,0.287844
-5.59802e-006,0.287781
-5.58103e-006,0.287773
-5.77847e-006,0.287867
-5.97684e-006,0.287961
-6.52073e-006,0.288219
-6.60595e-006,0.288259
-6.55659e-006,0.288236
-6.49046e-006,0.288204
-6.30886e-006,0.288118
-6.22597e-006,0.288079
-6.09372e-006,0.288016
-5.87858e-006,0.287914
-5.92794e-006,0.287938
-5.69698e-006,0.287828
-5.43248e-006,0.287703
-5.21735e-006,0.287601
-5.23376e-006,0.287609
-5.08568e-006,0.287539
-5.24959e-006,0.287616
-5.36601e-006,0.287671
-5.81118e-006,0.287883
-6.15949e-006,0.288047
-6.27498e-006,0.288102
-6.63819e-006,0.288274
-6.63903e-006,0.288275
-6.82064e-006,0.28836
-6.75498e-006,0.28833
-6.72192e-006,0.288314
-6.62273e-006,0.288267
-6.44113e-006,0.288181
-6.27535e-006,0.288102
-6.09374e-006,0.288017
-5.76405e-006,0.28786
-5.54799e-006,0.287758
-5.38314e-006,0.287679
-5.31655e-006,0.287648
-5.46463e-006,0.287718
-5.69653e-006,0.287828
-5.71318e-006,0.287836
-5.72971e-006,0.287844
-5.59839e-006,0.287781
-5.59753e-006,0.287781
-5.63035e-006,0.287797
-5.48227e-006,0.287727
-5.64619e-006,0.287804
-5.7952e-006,0.287875
-5.89485e-006,0.287922
-5.94468e-006,0.287946
-5.91185e-006,0.28793
-6.15958e-006,0.288047
-6.29183e-006,0.28811
-6.27541e-006,0.288102
-6.27533e-006,0.288102
-6.52306e-006,0.28822
-6.57289e-006,0.288243
-6.7545e-006,0.288329
-6.52353e-006,0.28822
-6.42434e-006,0.288173
-6.55566e-006,0.288235
-6.35822e-006,0.288142
-6.17661e-006,0.288056
-6.12655e-006,0.288032
-6.20897e-006,0.288071
-6.22562e-006,0.288079
-6.04401e-006,0.287993
-5.76462e-006,0.28786
-5.63144e-006,0.287797
-5.64704e-006,0.287805
-5.53155e-006,0.28775
-5.56438e-006,0.287765
-5.69663e-006,0.287828
-5.9276e-006,0.287937
-6.14273e-006,0.28804
-6.34111e-006,0.288133
-6.76951e-006,0.288337
-7.05077e-006,0.28847
-7.57976e-006,0.28872
-5.16578e-006,0.288948
-2.9604e-006,0.289284
1.86757e-006,0.289739
6.66575e-006,0.290224
1.44143e-005,0.290687
2.20437e-005,0.291202
3.25342e-005,0.291744
4.27862e-005,0.292393
5.56012e-005,0.293194
6.82969e-005,0.294063
8.36749e-005,0.29504
9.58939e-005,0.296131
0.000114133,0.297138
0.000129153,0.298275
0.000147035,0.29945
0.000164439,0.300838
0.000181248,0.302486
0.000200798,0.304256
0.000219991,0.306202
0.000238468,0.308445
0.00025933,0.310932
0.000276496,0.313801
0.000295689,0.317127
0.000313689,0.320988
0.00033324,0.325504
0.000351479,0.330631
0.000368645,0.336307
0.000384142,0.342716
0.000401666,0.349583
0.000417878,0.357029
0.000433137,0.364963
0.000453045,0.373386
0.000472118,0.382297
0.000487496,0.391514
0.000505378,0.400974
0.000523021,0.410496
0.000540306,0.4202
0.00055783,0.429783
0.000577857,0.439609
0.000600507,0.449497
0.0006197,0.459751
0.000638177,0.470188
0.000658919,0.481052
0.000679185,0.492161
0.000701835,0.503391
0.000724008,0.514927
0.000745465,0.526829
0.000766208,0.539036
0.000785877,0.551731
0.00081103,0.564609
0.000832846,0.577732
0.000854542,0.590793
0.000878741,0.60416
0.000902583,0.617649
0.000928809,0.631382
0.000951578,0.645359
0.000976851,0.65958
0.00100105,0.67429
0.00102787,0.689121
0.00105398,0.704319
0.00107937,0.719822
0.00110727,0.735569
0.00113158,0.75156
0.00116127,0.767795
0.00118725,0.784397
0.00121288,0.801121
0.00124388,0.818088
0.00127201,0.835056
0.00129943,0.85239
0.00132649,0.869846
0.00135319,0.887546
0.00138228,0.905369
0.00141113,0.923435
0.00143926,0.941746
0.00146978,0.9603
0.00149672,0.979221
0.00152581,0.99863
0.00155704,1.01816
0.0015847,1.03818
0.00161498,1.0582
0.0016474,1.07859
0.00167661,1.09922
0.0017076,1.12033
0.00173812,1.1417
0.00177078,1.16343
0.00180249,1.18564
0.00183087,1.20798
0.00186401,1.23081
0.00189667,1.25388
0.0019279,1.27768
0.00195842,1.30185
0.00199061,1.32639
0.00202232,1.35129
0.00205331,1.37656
0.00208371,1.40219
0.00211327,1.4282
0.00214188,1.45456
0.00217002,1.48117
0.00220053,1.50803
0.00222771,1.53501
0.0022599,1.56247
0.00228887,1.59006
0.00231724,1.61802
0.00234752,1.64634
0.00238328,1.6749
0.00240939,1.70383
0.00244014,1.73325
0.00247007,1.76316
0.00250154,1.79367
0.00252907,1.82468
0.00256126,1.85617
0.00258951,1.8884
0.00262003,1.92063
0.0026496,1.95359
0.00267809,1.98679
0.00270562,2.02073
0.00273304,2.05442
0.00275974,2.0886
0.00278895,2.12302
0.00281446,2.15769
0.00284546,2.1926
0.00286989,2.228
0.00289898,2.26364
0.00292771,2.29953
0.00295549,2.33615
0.00298577,2.37278
0.00301497,2.40989
0.00304358,2.44724
0.00307434,2.48508
0.00310724,2.52317
0.0031399,2.56125
0.00317185,2.59983
0.0032038,2.6384
0.00323527,2.67722
0.0032696,2.71604
0.00330107,2.75486
0.00333564,2.79367
0.00336735,2.83225
0.00339906,2.87107
0.00343387,2.90964
0.00346511,2.94846
0.00349896,2.98752
0.00353258,3.02683
0.0035662,3.06589
0.00360267,3.1052
0.00363534,3.14475
0.00367301,3.18479
0.00370758,3.22483
0.00374525,3.26487
0.00378268,3.3049
0.00382321,3.34494
0.00386112,3.38474
0.00389903,3.42478
0.00394004,3.46457
0.00397771,3.50461
0.00401538,3.54441
0.00405519,3.58493
0.00409429,3.62546
0.0041322,3.66672
0.00416868,3.70871
0.00420706,3.75119
0.00424617,3.79465
0.00428121,3.8386
0.00431745,3.88352
0.0043525,3.92893
0.00438922,3.97483
0.00442569,4.02073
0.00445907,4.06711
0.0044915,4.11374
0.00452655,4.16037
0.00455849,4.20725
0.00458997,4.25412
0.00462382,4.30173
0.00465672,4.34934
0.00468915,4.39743
0.00472038,4.44577
0.00475114,4.49485
0.00478332,4.54416
0.00481503,4.59397
0.00484841,4.64426
0.00487845,4.6948
0.00491064,4.74558
0.00494211,4.79685
0.00497287,4.84836
0.00500314,4.90012
0.00502973,4.95237
0.00506144,5.00461
0.00508957,5.05759
0.00512271,5.11057
0.00515168,5.16428
0.00518315,5.21848
0.00521653,5.27268
0.00524991,5.32712
0.00528591,5.38181
0.00532143,5.4365
0.00535362,5.49143
0.00538795,5.54685
0.00542205,5.60227
0.00545328,5.65793
0.00548737,5.71335
0.00552099,5.76902
0.00555723,5.82492
0.00558942,5.88108
0.00562351,5.93796
0.00565713,5.99509
0.00569265,6.05246
0.0057308,6.11032
0.00576823,6.16819
0.00580209,6.22678
0.00583761,6.28562
0.00586932,6.34494
0.00590008,6.40476
0.00592916,6.46531
0.00596302,6.52634
0.00599199,6.58835
0.0060225,6.65085
0.00605469,6.71433
0.00608521,6.77829
0.00611739,6.84275
0.00614863,6.90818
0.00617891,6.97361
0.00620609,7.03904
0.00623589,7.10495
0.00626235,7.17087
0.00629144,7.23728
0.00631981,7.30368
0.00634723,7.37058
0.00637691,7.43747
0.00640564,7.50534
0.00643068,7.57322
0.00646358,7.64157
0.00649255,7.71042
0.00652044,7.78025
0.0065444,7.85007
0.00657063,7.92038
0.00659607,7.99102
0.00662051,8.06182
0.00664662,8.1336
0.00667165,8.20586
0.00669835,8.27861
0.00672673,8.35186
0.00675438,8.4251
0.00678407,8.49932
0.00681291,8.57403
0.00683771,8.64873
0.00686179,8.72442
0.00688802,8.8001
0.00691067,8.87627
0.00693522,8.95244
0.00695883,9.02959
0.00698136,9.10723
0.0070083,9.18535
0.00703405,9.26397
0.00705896,9.34307
0.0070828,9.42266
0.00710534,9.50274
0.00712703,9.5833
0.00715052,9.66436
0.00717245,9.74639
0.00719283,9.82891
0.00722073,9.9124
0.00724457,9.9959
0.0072702,10.0804
0.00729762,10.1653
0.00732146,10.2503
0.00734423,10.3357
0.00736915,10.4217
0.00739036,10.5081
0.00741719,10.5945
0.00744103,10.681
0.00746475,10.7679
0.00749122,10.8543
0.0075203,10.9412
0.00754879,11.0281
0.00757335,11.1155
0.00759719,11.2034
0.00762318,11.2918
0.00764833,11.3807
0.00767885,11.4695
0.00770841,11.5584
0.00773989,11.6482
0.00777064,11.7386
0.00780378,11.8289
0.00783358,11.9192
0.00786327,12.0101
0.00789021,12.1004
0.00791703,12.1912
0.00794385,12.2815
0.00797354,12.3724
0.00800024,12.4632
0.00803266,12.5535
0.00806211,12.6443
0.00809072,12.7356
0.00811909,12.827
0.00814627,12.9188
0.0081719,13.011
0.00819634,13.1043
0.00822268,13.1976
0.00825165,13.2913
0.00828026,13.3855
0.00831126,13.4793
0.00834201,13.5735
0.00836979,13.6678
0.00839697,13.7625
0.00842117,13.8572
0.00844847,13.9515
0.00847588,14.0462
0.00850354,14.1404
0.00853346,14.2352
0.00856541,14.3299
0.00859331,14.4256
0.00861703,14.5218
0.00864242,14.6185
0.0086696,14.7161
0.00869869,14.8138
0.00872467,14.9114
0.00875543,15.0101
0.00878809,15.1087
0.00882028,15.2078
0.00884591,15.3074
0.00887369,15.407
0.00889788,15.5071
0.00892459,15.6077
0.00895415,15.7078
0.00898383,15.8079
0.00901626,15.9085
0.00904868,16.0086
0.00908063,16.1092
0.00910912,16.2103
0.00913964,16.3113
0.00916992,16.4129
0.00920306,16.514
0.00923882,16.6155
0.00927769,16.7171
0.00931846,16.8191
0.00935231,16.9212
0.00938807,17.0242
0.00941752,17.1272
0.00944923,17.2308
0.0094838,17.3343
0.00952099,17.4378
0.00955723,17.5418
0.00959013,17.6463
0.0096216,17.7508
0.00965308,17.8567
0.00968574,17.9632
0.00971983,18.0701
0.00975607,18.1775
0.0097916,18.2855
0.0098326,18.3934
0.0098729,18.5013
0.00990961,18.6102
0.00994252,18.719
0.00997756,18.8284
0.0100097,18.9378
0.010045,19.0472
0.0100863,19.1565
0.0101268,19.2659
0.0101633,19.3758
0.0101948,19.4871
0.0102305,19.5989
0.0102682,19.7112
0.0103082,19.824
0.01035,19.9373
0.0103967,20.0506
0.0104365,20.1648
0.0104725,20.2791
0.0105138,20.3943
0.0105519,20.5091
0.0105901,20.6238
0.0106287,20.7386
0.0106697,20.8538
0.0107133,20.969
0.0107503,21.0843
0.0107894,21.2
0.0108304,21.3162
0.0108714,21.4329
0.0109181,21.5491
0.0109682,21.6653
0.011018,21.7815
0.0110619,21.8982
0.0111024,22.0145
0.0111406,22.1312
0.0111825,22.2469
0.0112252,22.3621
0.011271,22.4778
0.0113163,22.5936
0.0113575,22.7098
0.0113945,22.827
0.011436,22.9441
0.011477,23.0618
0.0115206,23.18
0.0115633,23.2981
0.0116048,23.4173
0.0116429,23.5364
0.0116796,23.6561
0.0117133,23.7757
0.0117471,23.8958
0.0117841,24.0154
0.0118215,24.1351
0.0118613,24.2547
0.0118942,24.3748
0.0119257,24.4959
0.0119593,24.617
0.0119951,24.7391
0.0120337,24.8606
0.0120776,24.9827
0.0121176,25.1048
0.012156,25.2283
0.0121901,25.3523
0.0122235,25.4764
0.0122592,25.6009
0.0122976,25.7254
0.0123384,25.8504
0.0123725,25.9754
0.0124051,26.1014
0.0124395,26.2283
0.0124724,26.3553
0.0125079,26.4832
0.012546,26.6102
0.0125835,26.7381
0.0126202,26.866
0.0126562,26.9949
0.0126886,27.1238
0.012721,27.2527
0.0127594,27.3816
0.0127976,27.5105
0.0128326,27.6395
0.0128658,27.7693
0.0128975,27.9002
0.0129309,28.032
0.0129628,28.1639
0.0130021,28.2957
0.0130377,28.4295
0.0130715,28.5633
0.0131037,28.698
0.0131316,28.8328
0.0131619,28.9686
0.0131948,29.1043
0.013227,29.24
0.013258,29.3768
0.0132847,29.5145
0.0133132,29.6522
0.0133463,29.7908
0.0133821,29.9295
0.0134226,30.0682
0.0134622,30.2078
0.0134977,30.3475
0.0135294,30.4881
0.0135635,30.6287
0.0135974,30.7693
0.0136367,30.9109
0.0136725,31.0516
0.0137068,31.1941
0.0137397,31.3367
0.0137752,31.4793
0.0138165,31.6229
0.013861,31.7654
0.0139052,31.908
0.0139397,32.0516
0.0139741,32.1951
0.0140058,32.3387
0.0140382,32.4813
0.0140771,32.6238
0.0141131,32.7664
0.014145,32.91
0.0141786,33.0535
0.0142113,33.198
0.0142468,33.3416
0.0142852,33.4861
0.0143267,33.6307
0.0143584,33.7752
0.0143866,33.9197
0.0144174,34.0652
0.0144486,34.2098
0.014483,34.3553
0.0145168,34.4998
0.0145444,34.6453
0.0145736,34.7908
0.014605,34.9373
0.0146386,35.0838
0.0146749,35.2303
0.0147106,35.3777
0.0147428,35.5252
0.0147772,35.6727
0.0148079,35.8201
0.0148451,35.9686
0.0148821,36.116
0.0149157,36.2645
0.0149479,36.4129
0.0149791,36.5623
0.0150151,36.7117
0.0150535,36.8611
0.015094,37.0115
0.0151338,37.1619
0.0151667,37.3133
0.0152016,37.4646
0.0152361,37.617
0.0152702,37.7684
0.0153031,37.9217
0.015332,38.074
0.0153597,38.2283
0.0153897,38.3816
0.0154242,38.5369
0.0154641,38.6912
0.0155029,38.8465
0.0155341,39.0027
0.0155639,39.16
0.0155957,39.3172
0.0156264,39.4744
0.0156591,39.6326
0.0156901,39.7918
0.0157196,39.952
0.0157537,40.1121
0.0157834,40.2732
0.015823,40.4354
0.0158611,40.5984
0.0158924,40.7615
0.0159253,40.9246
0.015955,41.0887
0.0159898,41.2537
0.016027,41.4178
0.0160577,41.5828
0.0160906,41.7479
0.0161288,41.9129
0.0161705,42.0779
0.0162153,42.243
0.0162542,42.408
0.0162933,42.573
0.0163267,42.7381
0.0163607,42.9031
0.0163975,43.0672
0.0164311,43.2322
0.0164637,43.3982
0.0164966,43.5633
0.0165298,43.7283
0.0165691,43.8934
0.0166113,44.0574
0.0166421,44.2225
0.0166731,44.3875
0.0167043,44.5516
0.0167394,44.7156
0.0167777,44.8797
0.0168106,45.0438
0.0168457,45.2078
0.0168826,45.3729
0.016922,45.5369
0.0169666,45.7029
0.0170045,45.868
0.0170441,46.034
0.0170772,46.201
0.0171158,46.367
0.017154,46.534
0.0171947,46.701
0.0172295,46.868
0.0172675,47.035
0.0173082,47.202
0.0173547,47.3689
0.0174045,47.5359
0.017446,47.7029
0.0174868,47.8699
0.0175302,48.0369
0.0175757,48.2049
0.0176148,48.3719
0.0176551,48.5408
0.0176945,48.7098
0.0177359,48.8797
0.0177796,49.0496
0.0178273,49.2195
0.0178673,49.3914
0.0179033,49.5633
0.0179379,49.7361
0.017977,49.91
0.0180147,50.0838
0.0180492,50.2586
0.0180876,50.4334
0.0181305,50.6092
0.0181775,50.7859
0.0182202,50.9627
0.0182612,51.1414
0.0183008,51.3201
0.0183422,51.4988
0.0183797,51.6785
0.0184188,51.8592
0.0184569,52.0398
0.0184979,52.2215
0.0185418,52.4021
0.0185881,52.5838
0.0186353,52.7645
0.0186756,52.9441
0.0187132,53.1238
0.0187538,53.3035
0.0187981,53.4822
0.0188348,53.6609
0.0188746,53.8396
0.0189175,54.0184
0.0189664,54.1971
0.0190127,54.3758
0.0190556,54.5545
0.0190923,54.7332
0.0191316,54.9119
0.0191676,55.0906
0.0192063,55.2703
0.019242,55.45
0.0192754,55.6287
0.0193143,55.8074
0.0193612,55.9871
0.019408,56.1668
0.0194487,56.3465
0.019489,56.5262
0.0195346,56.7059
0.019577,56.8865
0.019619,57.0672
0.0196609,57.2479
0.0197053,57.4285
0.0197525,57.6092
0.0198021,57.7898
0.0198488,57.9705
0.0198927,58.1512
0.0199339,58.3328
0.0199838,58.5135
0.0200267,58.6951
0.0200729,58.8758
0.0201158,59.0574
0.0201638,59.2391
0.0202167,59.4217
0.0202656,59.6043
0.0203109,59.7869
0.020355,59.9705
0.0204031,60.1551
0.0204496,60.3406
0.0204923,60.5262
0.0205369,60.7127
0.0205831,60.8992
0.0206368,61.0867
0.0206904,61.2742
0.0233149,60.2195
0.0299067,57.2508
0.0364985,54.282
0.0431208,51.2977
0.0497432,48.3133
0.056396,45.3133
0.0631099,42.282
0.0697627,39.2352
0.0762324,36.157
0.0825496,33.0633
0.0861506,31.1961
0.0857005,31.22
0.0852885,31.2239
0.0848975,31.213
0.0845218,31.1957
0.0841517,31.177
0.0837779,31.1598
0.0834021,31.1449
0.083034,31.1322
0.0826716,31.122
0.0823092,31.1142
0.0819487,31.1074
0.0815902,31.099
0.0812449,31.0878
0.0809169,31.0721
0.0806079,31.0513
0.0803161,31.0244
0.0800414,30.991
0.0797973,30.9507
0.0795665,30.9048
0.0793576,30.8538
0.0791602,30.7988
0.0789676,30.7405
0.0787854,30.6794
0.0786109,30.6177
0.0784373,30.5557
0.0782695,30.4936
0.0781083,30.4311
0.0779538,30.3652
0.077805,30.2954
0.0776763,30.2202
0.0775671,30.1382
0.0774765,30.0498
0.0774045,29.9556
0.077342,29.855
0.077297,29.749
0.0772588,29.6382
0.0772313,29.5239
0.0772079,29.4072
0.0771872,29.2895
0.0771676,29.1714
0.0771548,29.0527
0.0771416,28.9341
0.0771245,28.8159
0.0771084,28.6987
0.0770931,28.583
0.0770786,28.4678
0.0770656,28.353
0.0770575,28.2392
0.0770514,28.1255
0.0770446,28.0122
0.0770338,27.8999
0.0770216,27.7876
0.0770084,27.6763
0.0769949,27.5649
0.0769811,27.4536
0.0769706,27.3423
0.076963,27.2309
0.076955,27.1196
0.0769425,27.0093
0.0769282,26.8994
0.0769175,26.791
0.0769052,26.6831
0.0768971,26.5762
0.0768879,26.4697
0.0768836,26.3638
0.0768755,26.2583
0.0768665,26.1528
0.0768534,26.0483
0.0768398,25.9443
0.0768283,25.8403
0.0768132,25.7368
0.0768036,25.6333
0.0767884,25.5298
0.0767817,25.4263
0.0767741,25.3232
0.0767593,25.2207
0.0767479,25.1196
0.0767349,25.0195
0.0767197,24.9199
0.0767092,24.8213
0.076701,24.7226
0.0766921,24.6245
0.0766852,24.5268
0.0766799,24.4297
0.0766707,24.333
0.0766578,24.2368
0.0766448,24.1406
0.0766315,24.0444
0.0766184,23.9482
0.0766086,23.8519
0.0766015,23.7557
0.0765941,23.66
0.0765887,23.5643
0.0765793,23.4691
0.0765714,23.3748
0.0765614,23.2811
0.076553,23.1883
0.0765459,23.0965
0.0765401,23.0052
0.0765381,22.9149
0.0765372,22.8255
0.076532,22.7366
0.0765311,22.6487
0.0765289,22.5613
0.076526,22.4744
0.07652,22.3875
0.0765134,22.3006
0.076509,22.2147
0.0765008,22.1287
0.0764969,22.0433
0.076492,21.9588
0.0764883,21.8748
0.0764837,21.7913
0.076484,21.7088
0.0764831,21.6263
0.0764778,21.5447
0.0764735,21.4637
0.076467,21.3841
0.0764581,21.3055
0.076453,21.2278
0.0764515,21.1517
0.0764454,21.076
0.0764432,21.0013
0.0764394,20.9271
0.0764369,20.8538
0.0764326,20.7816
0.0764299,20.7103
0.0764201,20.639
0.0764127,20.5682
0.0764075,20.4979
0.0763988,20.4276
0.0763893,20.3577
0.0763822,20.2879
0.0763764,20.2195
0.076372,20.1512
0.0763633,20.0838
0.0763562,20.0174
0.076351,19.951
0.0763451,19.8851
0.0763386,19.8192
0.0763313,19.7542
0.0763258,19.6893
0.0763187,19.6253
0.0763131,19.5623
0.0763062,19.4993
0.0762979,19.4373
0.0762913,19.376
0.0762862,19.3152
0.0762825,19.2554
0.0762769,19.1964
0.0762722,19.1382
0.0762686,19.0811
0.0762632,19.0247
0.0762568,18.9688
0.0762501,18.9131
0.076243,18.8575
0.0762387,18.8021
0.0762336,18.7471
0.0762276,18.6924
0.0762203,18.6382
0.0762118,18.585
0.0762054,18.5318
0.0762014,18.4791
0.0761967,18.4266
0.0761966,18.3746
0.0761896,18.3233
0.0761864,18.273
0.076179,18.2232
0.0761731,18.1741
0.0761692,18.1253
0.0761648,18.077
0.07616,18.0289
0.0761574,17.981
0.0761538,17.9337
0.0761491,17.8868
0.0761431,17.8404
0.0761395,17.795
0.0761354,17.7501
0.07613,17.7056
0.0761267,17.6619
0.0761281,17.6185
0.0761223,17.5757
0.0761236,17.5338
0.07612,17.493
0.0761175,17.4527
0.0761135,17.4134
0.0761112,17.3743
0.0761081,17.336
0.0761101,17.2979
0.0761079,17.2603
0.0761044,17.2235
0.0761053,17.1871
0.0761018,17.1517
0.0760973,17.1165
0.0760951,17.0819
0.0760951,17.0474
0.0760949,17.013
0.0760881,16.9791
0.0760863,16.9454
0.0760833,16.9124
0.0760819,16.8799
0.0760795,16.8482
0.076076,16.8167
0.076072,16.7856
0.0760703,16.7546
0.0760707,16.7242
0.0760731,16.6942
0.0760712,16.6647
0.0760679,16.6359
0.0760661,16.6079
0.0760629,16.5805
0.0760619,16.5534
0.07606,16.5268
0.0760626,16.5007
0.076061,16.4753
0.0760609,16.4506
0.0760621,16.4266
0.0760586,16.4035
0.0760597,16.3809
0.0760566,16.3589
0.0760555,16.3375
0.0760536,16.3162
0.0760535,16.2957
0.076055,16.2757
0.0760518,16.2565
0.0760529,16.2381
0.0760526,16.2204
0.0760513,16.2031
0.0760494,16.1861
0.0760523,16.1695
0.0760515,16.1534
0.0760521,16.1379
0.0760513,16.1231
0.0760522,16.1089
0.0760518,16.0953
0.0760477,16.0822
0.0760486,16.0693
0.0760491,16.0567
0.0760487,16.0445
0.0760474,16.0327
0.0760478,16.0215
0.076047,16.0109
0.0760479,16.0008
0.0760479,15.9912
0.0760472,15.9819
0.0760489,15.9728
0.0760498,15.9641
0.0760525,15.9559
0.076054,15.9483
0.0760571,15.9413
0.076056,15.935
0.0760568,15.929
0.0760598,15.9235
0.0760624,15.9182
0.0760643,15.9131
0.0760683,15.9084
0.0760714,15.9043
0.0760732,15.9006
0.0760741,15.8974
0.0760802,15.8945
0.0760831,15.8918
0.0760858,15.8892
0.076088,15.8867
0.076093,15.8843
0.0760971,15.8824
0.0761005,15.8808
0.0761031,15.8796
0.0761054,15.8785
0.0761075,15.8775
0.0761123,15.8766
0.0761174,15.8755
0.0761221,15.8747
0.0761291,15.8741
0.0761324,15.8739
0.0761409,15.874
0.0761491,15.8743
0.076157,15.8747
0.0761647,15.8751
0.0761752,15.8757
0.0761858,15.8762
0.0761958,15.877
0.0762109,15.878
0.0762257,15.8793
0.0762399,15.8808
0.076254,15.8824
0.076268,15.8841
0.076288,15.8856
0.0763049,15.8872
0.0763246,15.8889
0.0763438,15.8908
0.0763624,15.893
0.0763836,15.8954
0.0764046,15.8978
0.0764257,15.9002
0.07645,15.9025
0.0764744,15.9047
0.0764989,15.9069
0.0765232,15.9091
0.07655,15.9115
0.0765766,15.9141
0.0766064,15.9165
0.0766365,15.9187
0.0766642,15.9208
0.0766954,15.9225
0.0767295,15.9242
0.076761,15.9258
0.0767953,15.9275
0.0768294,15.9292
0.0768669,15.9308
0.0769043,15.9323
0.0769422,15.9336
0.0769806,15.9347
0.0770221,15.9357
0.0770633,15.9368
0.0771046,15.9379
0.0771487,15.9391
0.0771897,15.9403
0.0772309,15.9414
0.0772757,15.9422
0.0773184,15.9427
0.0773668,15.9431
0.0774128,15.9433
0.0774617,15.9437
0.0775103,15.9439
0.0775592,15.9442
0.0776112,15.9444
0.0776634,15.9445
0.0777161,15.9443
0.077769,15.944
0.0778248,15.9437
0.0778773,15.9437
0.0779324,15.9437
0.0779872,15.9439
0.0780423,15.944
0.0781,15.9441
0.0781553,15.9441
0.0782137,15.944
0.078269,15.9439
0.0783269,15.9441
0.0783844,15.9444
0.0784411,15.945
0.0785005,15.9458
0.0785565,15.9468
0.0786097,15.9478
0.0786655,15.9489
0.0787208,15.9502
0.0787754,15.9519
0.0788293,15.9539
0.0788853,15.9563
0.078938,15.9588
0.0789909,15.9613
0.0790467,15.9638
0.0790999,15.9662
0.0791564,15.9684
0.0792129,15.9704
0.0792701,15.9722
0.0793302,15.9741
0.0793881,15.9755
0.0794468,15.9767
0.0795062,15.9775
0.0795691,15.9779
0.0796325,15.9782
0.0796988,15.9784
0.0797617,15.9789
0.0798266,15.9797
0.079891,15.981
0.0799544,15.9825
0.0800178,15.9842
0.0800807,15.9861
0.0801461,15.9883
0.0802076,15.9908
0.080271,15.9937
0.0803308,15.9972
0.0803897,16.0009
0.0804479,16.0049
0.0805087,16.0092
0.0805666,16.0135
0.0806241,16.0179
0.0806816,16.0224
0.0807412,16.0271
0.0808005,16.0321
0.0808563,16.0373
0.0809174,16.0427
0.080976,16.0481
0.0810342,16.0536
0.081095,16.0592
0.0811551,16.0652
0.0812139,16.0717
0.0812714,16.079
0.081327,16.087
0.0813808,16.0959
0.0814361,16.1054
0.0814903,16.1156
0.0815427,16.1266
0.0815935,16.1383
0.0816455,16.1509
0.0816922,16.1645
0.0817399,16.1792
0.0817857,16.1946
0.0818303,16.2106
0.081877,16.2271
0.0819199,16.2439
0.0819621,16.2611
0.0820031,16.2788
0.082046,16.2972
0.0820851,16.3157
0.0821237,16.3346
0.082165,16.3537
0.0822062,16.3727
0.082248,16.3915
0.0822928,16.4103
0.0823347,16.4289
0.0823767,16.4475
0.0824215,16.4662
0.0824666,16.4849
0.0825117,16.5035
0.0825574,16.5218
0.0826034,16.5398
0.0826523,16.558
0.0826983,16.5762
0.0827491,16.5948
0.0827963,16.6137
0.0828454,16.6331
0.0828941,16.6529
0.0829389,16.6729
0.0829835,16.693
0.0830269,16.7138
0.0830724,16.7349
0.0831168,16.7566
0.083159,16.7793
0.0832028,16.8026
0.0832417,16.8268
0.083282,16.8518
0.0833235,16.8777
0.0833628,16.9045
0.0833964,16.9327
0.0834327,16.9623
0.0834591,16.9938
0.0834904,17.0273
0.083515,17.0624
0.0835388,17.0993
0.0835594,17.1376
0.083577,17.1776
0.0835919,17.2187
0.0836068,17.2614
0.0836195,17.3048
0.0836303,17.3493
0.0836396,17.3944
0.0836509,17.4401
0.0836581,17.4862
0.0836676,17.5326
0.0836759,17.5797
0.0836831,17.6274
0.0836885,17.6757
0.0836982,17.7248
0.083703,17.7748
0.0837095,17.8256
0.0837159,17.8774
0.0837239,17.9296
0.0837307,17.9826
0.0837391,18.036
0.0837429,18.0902
0.083751,18.1454
0.0837547,18.2011
0.0837601,18.2575
0.0837647,18.3141
0.0837683,18.3715
0.0837738,18.4291
0.0837784,18.4872
0.0837843,18.5461
0.0837888,18.6056
0.0837946,18.6662
0.0838047,18.7272
0.0838075,18.789
0.0838149,18.8515
0.0838215,18.914
0.0838275,18.977
0.0838355,19.0404
0.0838448,19.1049
0.0838502,19.1698
0.0838545,19.2348
0.0838553,19.3007
0.0838613,19.3666
0.083867,19.4325
0.0838749,19.4989
0.0838787,19.5658
0.0838836,19.6337
0.0838898,19.7021
0.0838946,19.7714
0.0839015,19.8412
0.0839074,19.911
0.0839153,19.9818
0.0839223,20.0526
0.0839254,20.1244
0.0839298,20.1967
0.0839331,20.2694
0.0839407,20.3427
0.0839442,20.4169
0.0839492,20.4916
0.0839529,20.5673
0.0839583,20.643
0.0839685,20.7196
0.0839805,20.7968
0.0839885,20.8744
0.0839927,20.9521
0.0840021,21.0307
0.0840058,21.1088
0.0840095,21.1869
0.0840164,21.265
0.0840203,21.3432
0.0840263,21.4218
0.0840343,21.5004
0.0840413,21.58
0.0840476,21.6601
0.0840591,21.7401
0.0840671,21.8202
0.0840743,21.9008
0.0840838,21.9818
0.0840894,22.0634
0.0840966,22.1459
0.0841027,22.2284
0.0841105,22.3114
0.0841175,22.3954
0.0841262,22.4794
0.084137,22.5639
0.08415,22.6493
0.0841587,22.7348
0.0841691,22.8207
0.0841757,22.9076
0.0841816,22.9945
0.0841866,23.0819
0.0841882,23.1698
0.084192,23.2577
0.0841983,23.3456
0.0842066,23.4345
0.0842138,23.5238
0.0842204,23.6132
0.084226,23.703
0.0842334,23.7934
0.0842373,23.8842
0.0842403,23.9755
0.0842451,24.0673
0.0842512,24.1596
0.0842585,24.2528
0.0842614,24.3471
0.0842686,24.4418
0.084277,24.5375
0.0842841,24.6337
0.0842903,24.7304
0.0842955,24.8275
0.0843,24.9247
0.0843036,25.0229
0.0843096,25.121
0.0843148,25.2196
0.0843218,25.3188
0.0843311,25.4179
0.084337,25.5175
0.0843451,25.6176
0.0843523,25.7182
0.0843583,25.8188
0.0843627,25.9208
0.0843687,26.0229
0.0843762,26.1259
0.0843829,26.2294
0.0843922,26.3329
0.0844042,26.4369
0.0844155,26.5409
0.0844234,26.6449
0.0844331,26.7499
0.0844388,26.8554
0.0844495,26.9608
0.084454,27.0668
0.0844614,27.1728
0.0844743,27.2787
0.084487,27.3852
0.084496,27.4916
0.084507,27.5985
0.0845163,27.7065
0.0845245,27.8149
0.0845345,27.9233
0.084544,28.0326
0.0845586,28.142
0.0845749,28.2519
0.0845876,28.3627
0.0846012,28.4735
0.0846107,28.5858
0.0846184,28.6986
0.084628,28.8119
0.0846368,28.9252
0.0846452,29.0395
0.0846588,29.1537
0.0846715,29.2679
0.08468,29.3832
0.084689,29.4994
0.0846989,29.617
0.0847068,29.7352
0.0847167,29.8539
0.0847321,29.973
0.0847497,30.0921
0.0847634,30.2118
0.0847756,30.3324
0.0847861,30.4535
0.084795,30.5755
0.0848033,30.6976
0.0848142,30.8202
0.0848305,30.9427
0.0848429,31.0663
0.0848569,31.1898
0.0848663,31.3143
0.0848731,31.4403
0.0848871,31.5663
0.0848999,31.6942
0.0849151,31.8211
0.0849333,31.9491
0.0849509,32.076
0.0849624,32.204
0.0849704,32.3319
0.0849806,32.4608
0.0849907,32.5887
0.0850012,32.7176
0.0850174,32.8456
0.0850302,32.9745
0.0850392,33.1034
0.0850497,33.2332
0.085059,33.3631
0.0850705,33.494
0.0850844,33.6249
0.0850977,33.7557
0.0851102,33.8875
0.0851223,34.0184
0.0851281,34.1512
0.0851365,34.2831
0.085145,34.4149
0.085156,34.5467
0.0851696,34.6795
0.0851815,34.8124
0.0851889,34.9471
0.0851945,35.0819
0.0851985,35.2176
0.0852072,35.3534
0.0852211,35.4901
0.0852337,35.6268
0.0852448,35.7645
0.085251,35.9032
0.0852557,36.0428
0.0852629,36.1825
0.0852701,36.3221
0.0852806,36.4618
0.0852936,36.6014
0.085303,36.742
0.0853114,36.8827
0.0853216,37.0233
0.085331,37.1649
0.0853464,37.3065
0.085365,37.4471
0.0853833,37.5887
0.0854005,37.7303
0.0854169,37.8729
0.0854268,38.0155
0.0854445,38.1581
0.0854591,38.3016
0.0854791,38.4452
0.0854923,38.5887
0.0855039,38.7332
0.085517,38.8788
0.0855288,39.0243
0.0855485,39.1707
0.0855673,39.3172
0.0855877,39.4647
0.085601,39.6131
0.0856162,39.7616
0.0856308,39.91
0.0856456,40.0584
0.0856658,40.2079
0.0856823,40.3563
0.0856942,40.5067
0.0857097,40.6581
0.0857291,40.8104
0.0857476,40.9627
0.0857681,41.1151
0.0857963,41.2684
0.0858175,41.4227
0.0858374,41.577
0.0858538,41.7323
0.0858758,41.8875
0.0859006,42.0428
0.0859229,42.1971
0.0859454,42.3524
0.0859685,42.5067
0.0859981,42.661
0.0860319,42.8143
0.0860701,42.9666
0.0861089,43.119
0.0861399,43.2713
0.086175,43.4227
0.0862088,43.5731
0.0862444,43.7235
0.0862844,43.8729
0.0863218,44.0213
0.0863598,44.1698
0.0864017,44.3182
0.0864442,44.4666
0.0864933,44.6141
0.0865407,44.7606
0.086587,44.9071
0.0866292,45.0516
0.0866769,45.1961
0.0867272,45.3387
0.0867798,45.4803
0.0868337,45.6219
0.0868855,45.7625
0.086941,45.9022
0.0870009,46.0418
0.0870686,46.1805
0.0871382,46.3182
0.0872054,46.4549
0.0872731,46.5926
0.0873394,46.7293
0.0874105,46.8641
0.0874839,46.9989
0.0875621,47.1327
0.0876398,47.2645
0.0877199,47.3954
0.0878029,47.5252
0.087894,47.6541
0.0879879,47.7811
0.0880838,47.9081
0.0881758,48.0331
0.0882731,48.1576
0.0883703,48.2806
0.0884743,48.4017
0.0885782,48.5213
0.0886817,48.64
0.0887895,48.7577
0.0889001,48.8739
0.0890169,48.9886
0.08914,49.1019
0.0892668,49.2132
0.0893946,49.3226
0.0895252,49.4295
0.0896607,49.534
0.089798,49.6351
0.0899506,49.7323
0.090106,49.8255
0.0902729,49.9134
0.0904846,49.9813
0.0907555,50.0213
0.0915642,49.8045
0.0929527,49.3065
0.094326,48.8104
0.0956993,48.3182
0.0970574,47.8299
0.0984154,47.3416
0.0997582,46.8553
0.10107,46.3709
0.102314,45.9041
0.103466,45.4588
0.104061,45.2694
0.104064,45.3563
0.104074,45.4398
0.104098,45.5179
0.104137,45.5916
0.10418,45.6624
0.104224,45.7318
0.104267,45.8011
0.10431,45.8705
0.104353,45.9393
0.104395,46.0077
0.104441,46.075
0.104489,46.1419
0.104542,46.2074
0.104595,46.2718
0.104653,46.3348
0.104715,46.3963
0.104778,46.4569
0.104842,46.5162
0.104909,46.5748
0.104974,46.6332
0.105043,46.6913
0.105111,46.7496
0.105179,46.8082
0.105248,46.867
0.105317,46.9266
0.105387,46.9867
0.105453,47.0477
0.105514,47.1095
0.105573,47.172
0.105629,47.235
0.105686,47.2984
0.105743,47.3624
0.105797,47.4273
0.105849,47.4937
0.105898,47.5611
0.105949,47.629
0.105999,47.6974
0.106048,47.7667
0.106096,47.836
0.106139,47.9063
0.106184,47.9776
0.106223,48.0499
0.106267,48.1227
0.106308,48.1959
0.106356,48.2691
0.106398,48.3429
0.106444,48.4176
0.106487,48.4923
0.106529,48.5675
0.106571,48.6427
0.106612,48.7179
0.106653,48.7936
0.106695,48.8692
0.106739,48.9444
0.106786,49.0201
0.106829,49.0958
0.106876,49.172
0.106915,49.2481
0.106961,49.3248
0.107002,49.4015
0.107047,49.4781
0.10709,49.5553
0.107137,49.6324
0.107186,49.7101
0.107232,49.7877
0.107282,49.8653
0.107329,49.9439
0.107374,50.0221
0.10742,50.1007
0.107463,50.1793
0.107509,50.2584
0.107552,50.3375
0.107596,50.4171
0.107641,50.4967
0.107687,50.5768
0.107733,50.6568
0.107778,50.7374
0.107819,50.8189
0.10786,50.9005
0.107902,50.9825
0.107943,51.0655
0.107982,51.1485
0.108027,51.232
0.108074,51.316
0.10812,51.4005
0.108163,51.4854
0.108205,51.5704
0.108243,51.6554
0.108285,51.7408
0.108326,51.8263
0.108368,51.9112
0.108412,51.9967
0.108456,52.0821
0.108503,52.1671
0.108551,52.2525
0.108598,52.3375
0.108643,52.4229
0.10869,52.5084
0.108739,52.5938
0.108791,52.6793
0.108844,52.7647
0.108901,52.8497
0.108958,52.9342
0.109019,53.0187
0.109076,53.1021
0.109137,53.1852
0.109195,53.2677
0.109258,53.3492
0.109323,53.4303
0.109389,53.5108
0.109459,53.5909
0.109529,53.6705
0.109596,53.7506
0.109663,53.8302
0.109729,53.9107
0.109798,53.9913
0.109866,54.0719
0.10994,54.1529
0.110013,54.234
0.110084,54.315
0.110158,54.3956
0.110227,54.4762
0.110296,54.5567
0.110358,54.6373
0.110424,54.7179
0.110493,54.7984
0.110563,54.878
0.110633,54.9576
0.110705,55.0367
0.110776,55.1163
0.110841,55.1959
0.110908,55.276
0.110977,55.3561
0.11104,55.4366
0.111112,55.5167
0.111181,55.5973
0.111253,55.6773
0.111322,55.7579
0.111388,55.8385
0.11145,55.9195
0.111515,56.0006
0.111579,56.0812
0.111642,56.1622
0.111708,56.2428
0.111777,56.3228
0.111842,56.4034
0.111907,56.4845
0.111968,56.5665
0.112026,56.649
0.112086,56.732
0.112148,56.816
0.112209,56.9005
0.112274,56.9854
0.112336,57.0709
0.112395,57.1573
0.11245,57.2442
0.112504,57.3321
0.112558,57.4205
0.112613,57.5094
0.112664,57.5982
0.112719,57.6871
0.112775,57.7765
0.112828,57.8658
0.112881,57.9557
0.112933,58.0455
0.112984,58.1358
0.113035,58.2267
0.113092,58.317
0.113149,58.4068
0.113209,58.4972
0.113267,58.5875
0.113324,58.6778
0.113378,58.7687
0.113434,58.859
0.113491,58.9493
0.113548,59.0401
0.113605,59.13
0.113665,59.2208
0.113722,59.3111
0.113778,59.4015
0.113834,59.4928
0.113888,59.5846
0.113941,59.6769
0.113998,59.7687
0.114057,59.8604
0.114124,59.9522
0.114188,60.0431
0.114254,60.1334
0.114315,60.2237
0.114377,60.3126
0.114446,60.4
0.114521,60.4845
0.114664,60.5362
0.116274,59.88
0.118128,59.1104
0.120028,58.3136
0.121935,57.5128
0.123865,56.7003
0.125811,55.8839
0.127764,55.0519
0.129709,54.212
0.131617,53.3565
0.133417,52.5245
0.133738,52.3849
0.133824,52.3502
0.133885,52.3265
0.133955,52.2994
0.134029,52.2693
0.134104,52.2385
0.134177,52.209
0.134248,52.1817
0.134311,52.1571
0.134368,52.135
0.134423,52.1153
0.134471,52.0979
0.134516,52.0819
0.134558,52.0672
0.134604,52.0532
0.134644,52.0398
0.134685,52.027
0.134728,52.0147
0.134766,52.0032
0.134806,51.9923
0.134845,51.982
0.134882,51.9723
0.134922,51.963
0.134961,51.9541
0.134995,51.9457
0.135035,51.9378
0.135068,51.9305
0.135102,51.9238
0.135138,51.9177
0.135169,51.9123
0.135203,51.9075
0.135238,51.903
0.135272,51.8991
0.135303,51.8957
0.135334,51.893
0.135365,51.891
0.135396,51.8898
0.135424,51.8891
0.135453,51.889
0.135481,51.8895
0.135508,51.8905
0.135534,51.8921
0.135561,51.8944
0.135584,51.8975
0.13561,51.9014
0.135636,51.9059
0.13566,51.9111
0.135683,51.9169
0.135705,51.9231
0.135729,51.9298
0.135751,51.9371
0.135773,51.9451
0.135793,51.9535
0.135815,51.9625
0.135836,51.972
0.13586,51.9818
0.135882,51.9918
0.135904,52.0024
0.135925,52.0133
0.135948,52.0247
0.135967,52.0367
0.13599,52.0493
0.13601,52.0623
0.136031,52.0757
0.136056,52.0891
0.136079,52.103
0.136099,52.1172
0.136121,52.1318
0.136143,52.1469
0.136163,52.1623
0.136186,52.1779
0.136208,52.1937
0.136233,52.2097
0.136255,52.226
0.136279,52.2424
0.136302,52.2594
0.136325,52.2766
0.136349,52.2941
0.136371,52.3116
0.136398,52.3295
0.136422,52.3475
0.136449,52.3655
0.136475,52.3835
0.136501,52.4019
0.136527,52.4204
0.136555,52.4391
0.136585,52.4581
0.136615,52.4773
0.136642,52.4967
0.136671,52.5162
0.136703,52.5361
0.136734,52.5563
0.136763,52.5769
0.136792,52.598
0.136823,52.6198
0.136853,52.6418
0.136881,52.6646
0.136912,52.6875
0.13694,52.7108
0.136971,52.7347
0.137,52.7589
0.137029,52.7839
0.137055,52.8093
0.137083,52.8351
0.137111,52.8612
0.137135,52.8873
0.137164,52.9138
0.13719,52.9407
0.137215,52.9678
0.137243,52.9954
0.137269,53.0233
0.137295,53.0515
0.137323,53.08
0.137348,53.1086
0.137375,53.1376
0.137402,53.1669
0.137428,53.1967
0.137455,53.2267
0.137482,53.2572
0.137511,53.2882
0.137536,53.3195
0.137564,53.3512
0.137591,53.3832
0.13762,53.4154
0.137645,53.4479
0.137673,53.4808
0.1377,53.514
0.137726,53.5477
0.137752,53.5817
0.13778,53.6158
0.137808,53.65
0.137836,53.6842
0.137864,53.7186
0.137893,53.7535
0.137925,53.7887
0.13795,53.8243
0.13798,53.8602
0.13801,53.8963
0.13804,53.9327
0.138074,53.9693
0.138105,54.0062
0.138138,54.0435
0.138168,54.0811
0.138197,54.1192
0.138229,54.1571
0.13826,54.1952
0.138289,54.2332
0.13832,54.2716
0.138352,54.3097
0.138382,54.3482
0.138416,54.3868
0.138445,54.4259
0.138474,54.4654
0.138505,54.5052
0.138538,54.5452
0.138568,54.5858
0.1386,54.6265
0.138628,54.6678
0.13866,54.7096
0.138692,54.7518
0.13872,54.7945
0.138753,54.8375
0.138783,54.8805
0.138812,54.9237
0.138841,54.9674
0.13887,55.0111
0.138897,55.0555
0.13893,55.0999
0.138959,55.1449
0.13899,55.1903
0.139018,55.2359
0.13905,55.2821
0.139081,55.3287
0.139112,55.3753
0.139148,55.4227
0.139181,55.4701
0.139216,55.5177
0.13925,55.5655
0.139282,55.6136
0.139316,55.6615
0.139348,55.7093
0.13938,55.7572
0.139414,55.805
0.139448,55.8534
0.139485,55.9017
0.139517,55.9505
0.139552,55.9996
0.139586,56.0492
0.139623,56.099
0.139659,56.1488
0.139697,56.1991
0.139735,56.2494
0.139773,56.2999
0.139808,56.3507
0.139845,56.4015
0.139879,56.4522
0.139916,56.5033
0.139953,56.5543
0.139989,56.6056
0.14003,56.6573
0.140067,56.7096
0.140106,56.7623
0.140145,56.8153
0.140186,56.8682
0.140227,56.9215
0.140272,56.9742
0.140315,57.0265
0.140355,57.0785
0.140399,57.1305
0.140444,57.1817
0.14049,57.2325
0.140534,57.2828
0.140582,57.3328
0.140633,57.3824
0.140684,57.432
0.140736,57.4815
0.140787,57.5313
0.14084,57.5811
0.140894,57.6309
0.140945,57.6807
0.140996,57.7303
0.141051,57.7799
0.141103,57.8292
0.141158,57.8785
0.14121,57.9276
0.141265,57.9766
0.141324,58.0257
0.141389,58.0741
0.141451,58.1217
0.141517,58.1681
0.141589,58.2135
0.141658,58.2574
0.141733,58.2996
0.141812,58.3397
0.141898,58.3768
0.14199,58.4098
0.142093,58.4375
0.142209,58.4598
0.142333,58.4773
0.142472,58.49
0.142615,58.4983
0.142769,58.5026
0.142929,58.5039
0.143093,58.5031
0.143256,58.5014
0.143416,58.5002
0.143572,58.5005
0.143721,58.503
0.143865,58.5082
0.144004,58.5165
0.144131,58.5284
0.144255,58.5441
0.14437,58.5631
0.144478,58.5852
0.144583,58.6102
0.14468,58.6382
0.144766,58.6693
0.144849,58.7035
0.144921,58.7406
0.14499,58.7801
0.145055,58.8219
0.145116,58.8653
0.14517,58.9108
0.145228,58.9574
0.145276,59.0057
0.145324,59.0553
0.145373,59.1061
0.14542,59.1576
0.145466,59.2103
0.145509,59.2635
0.145552,59.3173
0.14559,59.3719
0.14563,59.4271
0.145668,59.483
0.145708,59.5394
0.145747,59.5965
0.145787,59.6547
0.145825,59.713
0.145866,59.7721
0.145906,59.8314
0.145947,59.8912
0.145988,59.9515
0.146028,60.0123
0.146065,60.0731
0.146102,60.1341
0.146135,60.1954
0.146171,60.2565
0.146204,60.3177
0.146239,60.379
0.146274,60.4408
0.146309,60.5028
0.146345,60.5651
0.146381,60.6276
0.14642,60.6905
0.146455,60.7535
0.14649,60.8165
0.146528,60.88
0.146559,60.9435
0.146595,61.007
0.146631,61.0714
0.146666,61.1359
0.146703,61.2008
0.14674,61.2657
0.146779,61.3312
0.146818,61.3966
0.146854,61.462
0.146892,61.5279
0.146931,61.5934
0.146966,61.6593
0.147005,61.7247
0.147041,61.7902
0.14708,61.8556
0.147115,61.921
0.147154,61.9869
0.147192,62.0528
0.147235,62.1188
0.147275,62.1852
0.147315,62.2511
0.147355,62.3175
0.147392,62.3839
0.147431,62.4508
0.147472,62.5182
0.147508,62.5861
0.147547,62.6544
0.147587,62.7237
0.147626,62.7931
0.14767,62.8629
0.147707,62.9337
0.14775,63.0045
0.147789,63.0753
0.147824,63.1466
0.147859,63.2184
0.147896,63.2902
0.14793,63.3619
0.14797,63.4342
0.148007,63.506
0.148049,63.5782
0.148091,63.651
0.148132,63.7237
0.148172,63.797
0.148209,63.8702
0.148245,63.944
0.148285,64.0172
0.148325,64.0909
0.148367,64.1647
0.148412,64.2384
0.148456,64.3111
0.148507,64.3834
0.148556,64.4552
0.14861,64.526
0.148662,64.5963
0.148718,64.6661
0.148774,64.736
0.148825,64.8053
0.14888,64.8741
0.148937,64.9435
0.148989,65.0133
0.149046,65.0846
0.149099,65.1559
0.14915,65.2281
0.149201,65.3004
0.149251,65.3732
0.1493,65.4464
0.149345,65.5196
0.149396,65.5934
0.149446,65.6676
0.1495,65.7413
0.149557,65.8146
0.149613,65.8873
0.14967,65.9591
0.149729,66.0304
0.149786,66.1012
0.149847,66.1715
0.149909,66.2408
0.14997,66.3097
0.150038,66.378
0.150108,66.4454
0.150178,66.5128
0.150248,66.5802
0.150318,66.6471
0.150388,66.7145
0.150458,66.7814
0.150528,66.8487
0.150601,66.9161
0.150677,66.983
0.150755,67.0499
0.150836,67.1153
0.150919,67.1808
0.151002,67.2447
0.151089,67.3077
0.151175,67.3688
0.151268,67.4278
0.151367,67.4838
0.151474,67.5348
0.151748,67.5073
0.15224,67.3745
0.152778,67.2192
0.153339,67.0513
0.153919,66.8726
0.154525,66.6831
0.155151,66.4819
0.155796,66.271
0.156448,66.0493
0.157116,65.812
0.157676,65.6226
0.158176,65.4575
0.158664,65.2954
0.159137,65.1382
0.159597,64.9868
0.160038,64.8403
0.160461,64.7026
0.160864,64.5708
0.161241,64.4477
0.161577,64.3389
0.161848,64.2568
0.161955,64.2518
0.162034,64.2613
0.162101,64.2752
0.162163,64.2916
0.162224,64.31
0.162277,64.3303
0.162331,64.3523
0.16238,64.3759
0.162429,64.4004
0.162477,64.425
0.162526,64.4488
0.162578,64.4715
0.162631,64.4935
0.162685,64.5151
0.16274,64.5366
0.162795,64.5578
0.162849,64.5792
0.162903,64.6006
0.162959,64.6227
0.163012,64.6463
0.163061,64.6719
0.163108,64.6998
0.163151,64.7295
0.163188,64.7608
0.163225,64.7935
0.16326,64.8272
0.163295,64.8619
0.16333,64.897
0.163364,64.9327
0.163396,64.969
0.163428,65.0057
0.163458,65.0428
0.163491,65.0804
0.163518,65.118
0.163547,65.1558
0.163579,65.1939
0.163607,65.2322
0.163637,65.2708
0.163667,65.3096
0.163696,65.3489
0.163727,65.3887
0.163758,65.429
0.163787,65.4693
0.163816,65.5101
0.163847,65.5513
0.163878,65.5928
0.163911,65.6343
0.16394,65.6761
0.163972,65.7183
0.164001,65.7608
0.164029,65.8033
0.164059,65.8462
0.164086,65.8892
0.164119,65.9324
0.164151,65.9756
0.164185,66.0196
0.164215,66.0643
0.164246,66.1094
0.164277,66.1551
0.16431,66.201
0.164344,66.2474
0.164378,66.294
0.164409,66.3411
0.164444,66.3887
0.164473,66.4366
0.164507,66.4847
0.164538,66.5328
0.164569,66.5809
0.1646,66.629
0.164634,66.6771
0.164668,66.7254
0.164705,66.7737
0.164736,66.8218
0.164774,66.8694
0.164813,66.9166
0.164859,66.9627
0.164906,67.0076
0.164954,67.0506
0.165008,67.0916
0.165069,67.1314
0.16513,67.1692
0.16519,67.2059
0.165259,67.2413
0.165327,67.2762
0.165398,67.3106
0.165469,67.3448
0.165536,67.3799
0.165607,67.4158
0.165675,67.4532
0.165741,67.4915
0.165804,67.5313
0.165862,67.5721
0.165921,67.6138
0.165978,67.6565
0.16603,67.7
0.166081,67.7442
0.166133,67.7894
0.16618,67.8355
0.166228,67.8821
0.166276,67.9297
0.166319,67.9776
0.166366,68.0262
0.166413,68.075
0.166459,68.1243
0.166505,68.1741
0.166549,68.2244
0.166593,68.275
0.166636,68.3255
0.166679,68.376
0.166722,68.4268
0.166765,68.4778
0.166807,68.5294
0.166853,68.5814
0.166895,68.6341
0.166939,68.6871
0.166983,68.7403
0.167029,68.794
0.167077,68.848
0.167124,68.9022
0.167172,68.9566
0.167216,69.0113
0.167259,69.066
0.167303,69.1204
0.167347,69.1751
0.16739,69.23
0.167433,69.285
0.167479,69.3401
0.167524,69.3956
0.167569,69.4512
0.167618,69.5074
0.167664,69.564
0.167709,69.6207
0.167754,69.6778
0.167797,69.7354
0.167837,69.7933
0.167882,69.8519
0.167925,69.9109
0.167967,69.9703
0.168008,70.0306
0.168054,70.0914
0.168098,70.1529
0.168141,70.2149
0.168187,70.2769
0.168232,70.3394
0.168278,70.4017
0.16832,70.4639
0.168365,70.5264
0.168407,70.5889
0.168448,70.6519
0.168496,70.7144
0.16854,70.7774
0.168581,70.8404
0.168631,70.9029
0.168678,70.9659
0.168728,71.0294
0.168773,71.0928
0.168817,71.1573
0.168861,71.2217
0.168908,71.2862
0.168953,71.3511
0.169001,71.4166
0.169048,71.482
0.169097,71.5484
0.169146,71.6148
0.169194,71.6812
0.169243,71.7471
0.169294,71.8126
0.169346,71.8775
0.169397,71.941
0.169451,72.0035
0.169507,72.0648
0.169563,72.1248
0.169628,72.1834
0.169692,72.2408
0.169762,72.2969
0.169834,72.3519
0.169908,72.4058
0.169981,72.4593
0.170057,72.5125
0.17013,72.5652
0.170204,72.6182
0.17028,72.6714
0.170351,72.7256
0.170427,72.7801
0.170498,72.8355
0.170571,72.8919
0.170641,72.9493
0.170706,73.0074
0.170769,73.0669
0.170827,73.1273
0.170883,73.1885
0.170938,73.2508
0.170991,73.3133
0.171042,73.3768
0.171095,73.4412
0.171146,73.5066
0.171195,73.5726
0.171246,73.639
0.171293,73.7064
0.171336,73.7742
0.171377,73.8426
0.17142,73.9119
0.171461,73.9817
0.171503,74.0525
0.171544,74.1243
0.171585,74.1971
0.171628,74.2703
0.17167,74.344
0.171711,74.4183
0.17175,74.4935
0.171789,74.5687
0.171824,74.6448
0.171861,74.7205
0.171895,74.7972
0.171934,74.8733
0.171974,74.9495
0.172013,75.0264
0.172055,75.1026
0.172094,75.1792
0.172135,75.2564
0.172173,75.334
0.172209,75.4117
0.172247,75.4898
0.172285,75.5684
0.172321,75.648
0.172362,75.7281
0.172399,75.8086
0.172439,75.8902
0.172478,75.9722
0.172517,76.0547
0.172554,76.1377
0.172585,76.2212
0.172619,76.3042
0.172655,76.3882
0.172688,76.4717
0.172723,76.5557
0.172761,76.6402
0.172795,76.7246
0.172828,76.8096
0.172861,76.8946
0.172894,76.98
0.172927,77.0664
0.17296,77.1529
0.172991,77.2403
0.173028,77.3277
0.173064,77.4156
0.173104,77.503
0.173147,77.5904
0.173185,77.6773
0.173223,77.7642
0.173262,77.8506
0.173303,77.9361
0.17335,78.0191
0.175623,77.0269
0.179026,75.4878
0.182444,73.9488
0.185862,72.4019
0.189295,70.855
0.192744,69.3003
0.196207,67.73
0.19961,66.1519
0.202936,64.566
0.206187,62.9644
0.207148,62.4331
0.206959,62.4338
0.206784,62.4269
0.206624,62.4117
0.20647,62.3921
0.206317,62.3708
0.206164,62.3493
0.206008,62.329
0.205852,62.3102
0.205698,62.2932
0.205544,62.2781
0.205391,62.2647
0.205235,62.2531
0.205075,62.2433
0.204922,62.2345
0.204765,62.2263
0.20461,62.2182
0.204457,62.2087
0.204314,62.1978
0.204174,62.1855
0.204043,62.172
0.203912,62.1578
0.203792,62.1426
0.203677,62.1267
0.203562,62.1104
0.203451,62.094
0.203343,62.0777
0.203233,62.0619
0.203128,62.0466
0.203019,62.0317
0.202917,62.0164
0.202816,62.0009
0.202718,61.9847
0.202626,61.9676
0.202538,61.9496
0.202455,61.9308
0.202379,61.9111
0.202309,61.8905
0.202241,61.8689
0.20218,61.8458
0.202124,61.8211
0.202075,61.794
0.202033,61.7639
0.202006,61.7292
0.202041,61.6633
0.202358,61.4621
0.202755,61.2229
0.203191,60.9651
0.203655,60.6955
0.204136,60.4162
0.204632,60.1311
0.205135,59.8401
0.205635,59.5471
0.206127,59.2522
0.206548,58.9826
0.206689,58.8449
0.206758,58.7414
0.206794,58.653
0.206813,58.5739
0.206821,58.5002
0.206818,58.4314
0.206808,58.3664
0.20679,58.3044
0.206771,58.2451
0.206743,58.188
0.206716,58.1325
0.206689,58.0781
0.20666,58.0246
0.206636,57.9719
0.20661,57.9196
0.206587,57.8676
0.206566,57.8159
0.206547,57.7636
0.20653,57.7112
0.206516,57.6577
0.206506,57.6035
0.206498,57.5483
0.206492,57.4924
0.206487,57.4358
0.206484,57.3786
0.206481,57.3208
0.206483,57.2624
0.206486,57.2036
0.206489,57.1447
0.206494,57.0859
0.206499,57.0273
0.206502,56.9697
0.206507,56.9126
0.206514,56.8559
0.206516,56.8
0.206521,56.7446
0.206524,56.6897
0.206529,56.6352
0.20653,56.5813
0.206533,56.528
0.206537,56.4756
0.206538,56.4233
0.206543,56.3716
0.206545,56.3203
0.206545,56.2697
0.206549,56.2197
0.20655,56.1704
0.206551,56.122
0.206554,56.0747
0.206557,56.0278
0.206557,55.9817
0.206561,55.936
0.206564,55.8913
0.206566,55.8469
0.206566,55.8032
0.206565,55.76
0.206569,55.7175
0.206573,55.6753
0.206572,55.6333
0.206572,55.5913
0.206576,55.5498
0.206574,55.5088
0.206575,55.4677
0.206577,55.4272
0.206579,55.3872
0.206579,55.3476
0.206582,55.3086
0.206584,55.2697
0.206584,55.2317
0.206584,55.1941
0.206585,55.157
0.206584,55.1208
0.206585,55.0852
0.206585,55.05
0.206583,55.0158
0.206583,54.9821
0.206585,54.9489
0.206583,54.9165
0.206582,54.8845
0.20658,54.853
0.206583,54.8222
0.206581,54.7923
0.206587,54.7628
0.206586,54.734
0.206586,54.7057
0.206589,54.6777
0.206587,54.6504
0.206588,54.6234
0.206587,54.5971
0.206588,54.5714
0.206587,54.5465
0.206586,54.5219
0.206586,54.4979
0.206585,54.4745
0.206586,54.4516
0.206589,54.4294
0.20659,54.4078
0.206592,54.3871
0.20659,54.3672
0.206592,54.3479
0.206593,54.3288
0.206594,54.3104
0.206596,54.2926
0.206597,54.2754
0.206599,54.2588
0.2066,54.2429
0.206602,54.2276
0.206604,54.2129
0.206604,54.1986
0.206607,54.1848
0.206608,54.1715
0.206611,54.1587
0.206611,54.1465
0.206615,54.1347
0.206614,54.1236
0.206613,54.1129
0.206614,54.1026
0.206617,54.0926
0.20662,54.083
0.206622,54.0736
0.206625,54.0648
0.206628,54.0566
0.20663,54.0488
0.206633,54.0415
0.206636,54.0345
0.206638,54.0277
0.206643,54.0212
0.206647,54.0153
0.206652,54.0097
0.206657,54.0047
0.206661,54
0.206664,53.9958
0.206669,53.9918
0.206674,53.988
0.206678,53.9846
0.206685,53.9814
0.206688,53.9785
0.206693,53.976
0.206698,53.9735
0.206703,53.9714
0.206707,53.9693
0.206711,53.9674
0.206718,53.9656
0.206724,53.9638
0.206728,53.9622
0.206733,53.9609
0.206741,53.9598
0.206749,53.9589
0.206759,53.9582
0.206769,53.9577
0.206778,53.9574
0.20679,53.9571
0.206802,53.957
0.206816,53.9572
0.206827,53.9577
0.20684,53.9584
0.206856,53.9592
0.206871,53.9601
0.20689,53.961
0.206905,53.962
0.206924,53.963
0.206941,53.9642
0.206962,53.9655
0.206982,53.9669
0.207005,53.9684
0.207028,53.9699
0.207052,53.9713
0.207075,53.9727
0.207101,53.974
0.207128,53.9752
0.207155,53.9762
0.207184,53.9773
0.207215,53.9782
0.207245,53.979
0.207278,53.9797
0.207312,53.9801
0.207346,53.9806
0.20738,53.981
0.20742,53.9814
0.207457,53.982
0.207493,53.9826
0.207533,53.9832
0.207572,53.9837
0.207612,53.9841
0.207655,53.9844
0.207695,53.9847
0.207738,53.9849
0.207784,53.9852
0.207827,53.9855
0.207873,53.9859
0.207919,53.9861
0.207962,53.9863
0.208012,53.9862
0.208059,53.986
0.208106,53.9858
0.208153,53.9854
0.208203,53.985
0.208254,53.9844
0.208304,53.9838
0.208356,53.9829
0.20841,53.982
0.208462,53.981
0.208516,53.9801
0.208567,53.9792
0.208621,53.9784
0.208674,53.9778
0.208728,53.9771
0.208785,53.9763
0.208842,53.9755
0.208899,53.9745
0.208956,53.9737
0.20901,53.9729
0.209069,53.9724
0.209125,53.9719
0.209182,53.9715
0.209241,53.971
0.209297,53.9705
0.209356,53.9701
0.209415,53.9698
0.209473,53.9697
0.209531,53.9698
0.209592,53.97
0.209649,53.9702
0.209709,53.9706
0.209767,53.971
0.209827,53.9716
0.209883,53.9725
0.209942,53.9735
0.21,53.9748
0.210055,53.9764
0.210112,53.9783
0.210169,53.9802
0.210223,53.9823
0.210279,53.9846
0.210332,53.9872
0.210387,53.99
0.210442,53.9931
0.210493,53.9964
0.21055,53.9999
0.210604,54.0034
0.21066,54.007
0.210713,54.0107
0.21077,54.0144
0.210826,54.0182
0.210882,54.0221
0.21094,54.0262
0.210995,54.0303
0.211051,54.0345
0.211111,54.0389
0.211166,54.0435
0.211225,54.0484
0.211281,54.0536
0.211339,54.0596
0.211395,54.0662
0.211449,54.0735
0.211505,54.0815
0.211557,54.0901
0.211608,54.0995
0.211657,54.1095
0.211707,54.1204
0.211755,54.1321
0.211799,54.1448
0.211844,54.1581
0.211887,54.1722
0.21193,54.1868
0.211968,54.202
0.212011,54.2177
0.21205,54.2339
0.212094,54.2509
0.21213,54.2681
0.212172,54.2858
0.212214,54.3038
0.212255,54.322
0.212295,54.3401
0.212336,54.3586
0.212379,54.3771
0.212421,54.3961
0.212463,54.4151
0.212507,54.4344
0.212548,54.4538
0.212592,54.4733
0.212636,54.493
0.212679,54.5126
0.212725,54.5324
0.212772,54.5521
0.212818,54.572
0.212862,54.5915
0.212909,54.6109
0.212956,54.6301
0.213005,54.6489
0.21305,54.6674
0.2131,54.6856
0.21315,54.7037
0.213203,54.7215
0.213254,54.7392
0.213304,54.7569
0.213357,54.7748
0.213407,54.7927
0.21346,54.8109
0.213512,54.8293
0.213566,54.8481
0.213619,54.8672
0.213671,54.887
0.213722,54.9073
0.213772,54.928
0.213825,54.949
0.213874,54.9703
0.213924,54.9921
0.213972,55.0142
0.214021,55.0369
0.214065,55.0601
0.214112,55.0839
0.214158,55.1082
0.214202,55.1331
0.214248,55.1589
0.214291,55.1856
0.214332,55.2136
0.214373,55.2429
0.214408,55.2736
0.214443,55.3058
0.214477,55.3398
0.214509,55.3752
0.214537,55.412
0.214565,55.4504
0.214588,55.4902
0.214611,55.5309
0.214632,55.5727
0.214654,55.6152
0.214672,55.6581
0.214693,55.7018
0.214712,55.7458
0.214728,55.7902
0.214745,55.8351
0.214762,55.8803
0.214778,55.926
0.214798,55.9724
0.214815,56.019
0.214831,56.0661
0.214848,56.1137
0.214865,56.1618
0.214884,56.2101
0.214903,56.2587
0.21492,56.3078
0.21494,56.3571
0.21496,56.4067
0.214976,56.4565
0.214994,56.5065
0.215012,56.5566
0.215033,56.6069
0.215051,56.6572
0.215071,56.7079
0.215093,56.759
0.215115,56.8105
0.215135,56.8622
0.215161,56.9142
0.215184,56.9665
0.215212,57.019
0.215236,57.0717
0.215261,57.1245
0.215288,57.1774
0.215312,57.2304
0.215338,57.2836
0.215365,57.3366
0.215389,57.3896
0.215416,57.4423
0.215443,57.4953
0.215473,57.5485
0.215502,57.602
0.215529,57.6562
0.215558,57.7106
0.215587,57.7653
0.215616,57.8205
0.215646,57.8759
0.215676,57.9316
0.215706,57.9875
0.215735,58.0439
0.215765,58.1008
0.215792,58.1579
0.215821,58.2153
0.215853,58.2731
0.215883,58.3315
0.215915,58.3906
0.215946,58.4499
0.215976,58.5099
0.216008,58.5703
0.216041,58.6313
0.216074,58.6926
0.216103,58.7543
0.216132,58.8161
0.216163,58.8781
0.216192,58.9404
0.216222,59.0029
0.216252,59.0654
0.216281,59.1288
0.216311,59.1923
0.216342,59.2563
0.216372,59.3207
0.216404,59.3852
0.216436,59.4496
0.216467,59.5149
0.216498,59.5799
0.21653,59.6453
0.21656,59.7112
0.216591,59.7776
0.216626,59.8435
0.216659,59.9104
0.216692,59.9773
0.216723,60.0452
0.21676,60.1131
0.216796,60.1809
0.216833,60.2488
0.216869,60.3172
0.216902,60.3855
0.216938,60.4539
0.216968,60.5222
0.217,60.5906
0.217033,60.659
0.217068,60.7278
0.217102,60.7971
0.217135,60.8665
0.217172,60.9358
0.217208,61.0056
0.217243,61.0755
0.217279,61.1453
0.217311,61.2156
0.217342,61.2859
0.217373,61.3567
0.217409,61.4275
0.217442,61.4988
0.21748,61.5701
0.217518,61.6414
0.217556,61.7132
0.217597,61.7849
0.217635,61.8562
0.217669,61.928
0.217705,61.9993
0.217741,62.0706
0.217783,62.1414
0.21782,62.2117
0.217858,62.2815
0.217899,62.3518
0.217943,62.4217
0.217987,62.492
0.218031,62.5618
0.218075,62.6321
0.218119,62.7019
0.21816,62.7718
0.218207,62.8421
0.21825,62.9124
0.218292,62.9832
0.218339,63.0545
0.218386,63.1258
0.218435,63.1975
0.218483,63.2698
0.218532,63.3421
0.21858,63.4138
0.218625,63.4861
0.21867,63.5584
0.218719,63.6306
0.218765,63.7024
0.218816,63.7742
0.218869,63.846
0.218919,63.9173
0.218972,63.9886
0.219026,64.0593
0.21908,64.1297
0.219131,64.2005
0.219182,64.2713
0.219237,64.3416
0.219292,64.4119
0.219351,64.4817
0.21941,64.5515
0.219474,64.6204
0.219538,64.6887
0.219607,64.7566
0.219672,64.8235
0.219737,64.8899
0.219806,64.9553
0.21988,65.0193
0.219951,65.0818
0.220032,65.1424
0.220118,65.2002
0.220211,65.2554
0.22031,65.3074
0.220417,65.355
0.220533,65.3972
0.220665,65.4317
0.220816,65.4572
0.221046,65.4472
0.221779,65.1913
0.222584,64.9022
0.223457,64.5819
0.224407,64.2226
0.225407,63.8378
0.226444,63.4355
0.227489,63.0214
0.228535,62.5995
0.229557,62.1757
0.230511,61.7792
0.230946,61.62
0.231319,61.4853
0.231632,61.3778
0.231865,61.3051
0.232054,61.2528
0.232207,61.2152
0.232337,61.189
0.232451,61.1704
0.232551,61.1574
0.232642,61.1483
0.232725,61.1421
0.232805,61.1386
0.23288,61.1374
0.232948,61.1382
0.233012,61.1408
0.233079,61.1451
0.233137,61.151
0.233191,61.1583
0.233246,61.1671
0.233295,61.1771
0.233344,61.1883
0.233394,61.2006
0.233439,61.2139
0.233482,61.2282
0.233529,61.2436
0.233571,61.26
0.23361,61.2773
0.233648,61.2955
0.23369,61.3147
0.233727,61.3347
0.233762,61.3554
0.233799,61.3769
0.233835,61.3991
0.233868,61.4222
0.233903,61.4459
0.233937,61.4703
0.23397,61.4951
0.234003,61.5201
0.234035,61.5454
0.234066,61.571
0.234097,61.5968
0.23413,61.623
0.234162,61.6494
0.234191,61.676
0.234226,61.703
0.234257,61.7301
0.234287,61.7573
0.234323,61.7851
0.234354,61.8134
0.234385,61.8422
0.234417,61.8717
0.234448,61.9016
0.234478,61.9321
0.23451,61.963
0.234541,61.9942
0.234574,62.026
0.234606,62.0582
0.234637,62.0909
0.234668,62.1239
0.234697,62.1573
0.234727,62.1908
0.234755,62.2247
0.234784,62.2586
0.234814,62.2931
0.234841,62.3277
0.234874,62.3626
0.234904,62.3983
0.234935,62.4342
0.234961,62.4708
0.234992,62.5077
0.235022,62.5452
0.235051,62.5828
0.235082,62.6212
0.235115,62.66
0.235145,62.6991
0.235176,62.7389
0.235209,62.7789
0.23524,62.8189
0.23527,62.859
0.235301,62.899
0.235334,62.939
0.235365,62.9791
0.235395,63.0191
0.235428,63.0594
0.235458,63.0997
0.235491,63.1397
0.235521,63.18
0.235553,63.2203
0.235589,63.2611
0.23562,63.3021
0.235653,63.3436
0.235686,63.3853
0.235721,63.4273
0.235756,63.4696
0.23579,63.5118
0.235827,63.5543
0.235858,63.5968
0.235891,63.6397
0.235927,63.6827
0.235963,63.7259
0.235995,63.7694
0.236029,63.8131
0.236063,63.857
0.2361,63.9012
0.236138,63.9459
0.236173,63.9908
0.23621,64.0362
0.236246,64.0819
0.236284,64.128
0.23632,64.1739
0.236358,64.2198
0.236397,64.266
0.236436,64.3116
0.236472,64.3575
0.236511,64.4029
0.236551,64.4481
0.236588,64.4935
0.236629,64.5382
0.23667,64.5831
0.236709,64.6275
0.236755,64.6715
0.236802,64.7142
0.236855,64.7559
0.236927,64.7872
0.237351,64.6485
0.238011,64.3966
0.238785,64.0899
0.239727,63.7032
0.240727,63.2852
0.241772,62.8458
0.242848,62.3907
0.243947,61.922
0.245045,61.4395
0.246136,60.9513
0.246876,60.6212
0.247391,60.3907
0.247807,60.2032
0.248072,60.0841
0.248295,59.984
0.2485,59.8922
0.248692,59.8033
0.248888,59.713
0.249181,59.5743
0.250036,59.1641
0.25105,58.6778
0.252103,58.17
0.253202,57.6427
0.254323,57.0997
0.255475,56.545
0.256635,55.9864
0.257787,55.42
0.258924,54.8575
0.259908,54.3458
0.260307,54.1065
0.260536,53.9434
0.260709,53.8048
0.260834,53.6856
0.26092,53.5826
0.260982,53.4923
0.261013,53.4112
0.261032,53.3375
0.26104,53.2691
0.261038,53.2057
0.261028,53.1458
0.261007,53.0902
0.26098,53.0382
0.260944,52.9896
0.260908,52.9442
0.260865,52.9015
0.260817,52.8614
0.260767,52.8241
0.260712,52.7891
0.260654,52.7564
0.260595,52.7259
0.260533,52.6972
0.260469,52.6692
0.260407,52.6414
0.260348,52.6137
0.260286,52.586
0.260227,52.5583
0.260171,52.5305
0.260115,52.5028
0.260065,52.4751
0.260014,52.4476
0.259963,52.4205
0.259914,52.3939
0.259862,52.3681
0.259815,52.3433
0.259762,52.3197
0.25971,52.297
0.259659,52.2752
0.259607,52.2544
0.259555,52.2342
0.259506,52.2146
0.259453,52.1952
0.259405,52.1764
0.259356,52.1579
0.259309,52.14
0.259261,52.1224
0.259213,52.1049
0.25917,52.0877
0.259125,52.0703
0.259082,52.0528
0.259044,52.0351
0.259008,52.0169
0.258974,51.9984
0.258944,51.9792
0.258918,51.9594
0.258894,51.9389
0.258874,51.9177
0.258858,51.8958
0.258843,51.8736
0.258832,51.8508
0.258821,51.8281
0.258813,51.8053
0.258807,51.7828
0.258801,51.7603
0.258795,51.7381
0.258791,51.7163
0.258787,51.6945
0.258787,51.6733
0.258783,51.6525
0.258781,51.6324
0.258781,51.6128
0.258778,51.5933
0.258776,51.5745
0.258777,51.5559
0.25878,51.5376
0.258779,51.5197
0.258781,51.5023
0.258781,51.4853
0.258783,51.4688
0.258785,51.4526
0.258786,51.4366
0.258789,51.421
0.258791,51.4059
0.258793,51.3912
0.258793,51.3768
0.258799,51.363
0.258797,51.3496
0.258801,51.3366
0.258804,51.3238
0.25881,51.3114
0.258815,51.2992
0.258819,51.2873
0.258825,51.2757
0.258828,51.2646
0.258836,51.2537
0.258843,51.2431
0.258847,51.2327
0.258857,51.2227
0.258862,51.213
0.25887,51.2035
0.25888,51.1944
0.25889,51.1856
0.258898,51.1773
0.258906,51.1692
0.258916,51.1615
0.258926,51.1539
0.258936,51.1466
0.258948,51.1393
0.258959,51.1323
0.25897,51.1257
0.258983,51.1194
0.258993,51.1132
0.259006,51.1071
0.259018,51.1011
0.25903,51.0952
0.259042,51.0895
0.259054,51.0839
0.259065,51.0786
0.259075,51.0735
0.259089,51.0686
0.259101,51.0638
0.259114,51.0593
0.259129,51.0547
0.259144,51.0504
0.259161,51.0463
0.259177,51.0426
0.259196,51.0391
0.259214,51.0359
0.259232,51.0328
0.25925,51.0298
0.259271,51.0268
0.259294,51.0239
0.259314,51.0213
0.259334,51.0189
0.259356,51.0165
0.259381,51.0142
0.259406,51.0121
0.259428,51.0099
0.259456,51.0077
0.259484,51.0054
0.259512,51.003
0.25954,51.0006
0.259572,50.9981
0.259603,50.9955
0.259638,50.9929
0.259673,50.99
0.259708,50.9869
0.259741,50.9835
0.25978,50.98
0.259817,50.9765
0.259856,50.973
0.259895,50.9697
0.259937,50.9663
0.259976,50.9629
0.260018,50.9596
0.26006,50.9561
0.260104,50.9529
0.260146,50.9496
0.26019,50.9464
0.260234,50.9434
0.260278,50.9405
0.260325,50.9375
0.260369,50.9344
0.260416,50.9313
0.260463,50.928
0.260511,50.9249
0.260561,50.9217
0.260607,50.9188
0.260657,50.916
0.260707,50.9131
0.260756,50.9103
0.260805,50.9076
0.260854,50.9051
0.260905,50.9028
0.260956,50.901
0.261005,50.8995
0.261051,50.8986
0.261098,50.898
0.261145,50.8979
0.261191,50.8981
0.261237,50.8985
0.261282,50.8992
0.261327,50.8999
0.261375,50.9007
0.261423,50.9014
0.261471,50.9019
0.26152,50.902
0.261574,50.9014
0.261628,50.9004
0.261683,50.899
0.261739,50.8973
0.261798,50.8954
0.261858,50.8932
0.261915,50.8909
0.261976,50.8883
0.262036,50.8857
0.262097,50.883
0.262161,50.8803
0.262222,50.8777
0.262285,50.8752
0.262345,50.8728
0.262405,50.8703
0.262468,50.8679
0.262532,50.8655
0.262595,50.863
0.262658,50.8605
0.262718,50.8581
0.262781,50.8557
0.262847,50.8534
0.26291,50.8514
0.262975,50.8493
0.263036,50.8477
0.2631,50.8462
0.263164,50.8451
0.263223,50.8444
0.263284,50.8443
0.263345,50.8447
0.263401,50.8456
0.263463,50.8469
0.26352,50.8485
0.263577,50.8504
0.263637,50.8526
0.263693,50.8549
0.263752,50.8573
0.26381,50.8599
0.263866,50.8626
0.263924,50.8653
0.26398,50.868
0.264041,50.8708
0.264096,50.8736
0.264154,50.8765
0.264214,50.8796
0.264271,50.8831
0.264327,50.887
0.264382,50.8914
0.264438,50.8963
0.264491,50.9019
0.264545,50.908
0.264598,50.9147
0.264649,50.9222
0.264699,50.9306
0.264746,50.9398
0.264795,50.9499
0.26484,50.9605
0.264887,50.9717
0.264936,50.9831
0.264981,50.9951
0.265025,51.0074
0.265068,51.0203
0.265111,51.0334
0.265156,51.0467
0.265201,51.06
0.265246,51.0733
0.265291,51.0866
0.265339,51.1
0.265384,51.1135
0.265429,51.1268
0.265476,51.1404
0.265524,51.1539
0.265571,51.1675
0.265616,51.181
0.265666,51.1945
0.265714,51.208
0.265759,51.2216
0.265809,51.2354
0.265855,51.2495
0.265904,51.2638
0.265952,51.2783
0.266,51.2928
0.266051,51.3076
0.266098,51.3228
0.266147,51.3385
0.266194,51.3552
0.266237,51.3737
0.266278,51.3944
0.266314,51.418
0.266346,51.4445
0.266373,51.4736
0.266397,51.5054
0.266413,51.5398
0.266427,51.5767
0.266436,51.6157
0.266442,51.6563
0.266446,51.6983
0.266452,51.7402
0.266458,51.7822
0.266465,51.8237
0.266471,51.8655
0.26648,51.9075
0.266489,51.9495
0.266497,51.9922
0.266507,52.0352
0.266518,52.0786
0.266526,52.1223
0.266537,52.1668
0.266549,52.2114
0.26656,52.2564
0.266573,52.3018
0.266586,52.3474
0.266599,52.3936
0.266611,52.4397
0.266625,52.4861
0.266637,52.5325
0.266651,52.5789
0.266665,52.6253
0.266679,52.6719
0.266696,52.7185
0.266712,52.7654
0.266728,52.8128
0.266743,52.8601
0.266764,52.9075
0.266784,52.9553
0.266804,53.0034
0.266826,53.0515
0.266847,53.1004
0.266868,53.1492
0.266891,53.1983
0.266915,53.2471
0.266942,53.2959
0.26697,53.3442
0.266994,53.3926
0.26702,53.4407
0.267045,53.4888
0.267074,53.5366
0.267104,53.584
0.267134,53.6314
0.267167,53.6785
0.267198,53.7254
0.267235,53.7722
0.267268,53.8189
0.267303,53.8655
0.267344,53.9116
0.267382,53.9578
0.267421,54.0034
0.267461,54.0486
0.267502,54.0935
0.267546,54.1382
0.267588,54.1824
0.267631,54.2266
0.267673,54.2708
0.26772,54.3154
0.267767,54.3601
0.267813,54.4053
0.267861,54.4507
0.267909,54.4963
0.267956,54.5422
0.268003,54.5886
0.268052,54.635
0.2681,54.6817
0.268149,54.7285
0.268198,54.7752
0.268244,54.8218
0.268293,54.8679
0.26834,54.9141
0.268393,54.9602
0.268443,55.0064
0.268489,55.0527
0.268544,55.0994
0.268595,55.146
0.268647,55.1926
0.268702,55.239
0.268757,55.2854
0.268809,55.332
0.268861,55.3787
0.268915,55.4255
0.268965,55.4727
0.26902,55.5195
0.269073,55.5664
0.26913,55.6135
0.269186,55.6607
0.269242,55.7085
0.269296,55.7564
0.269356,55.8045
0.269413,55.8528
0.269473,55.9014
0.269532,55.95
0.269588,55.9983
0.269645,56.0469
0.269701,56.0955
0.269758,56.1441
0.269814,56.1926
0.26987,56.2417
0.269925,56.2905
0.269984,56.3396
0.270045,56.3884
0.270107,56.4373
0.270169,56.4861
0.270228,56.5347
0.27029,56.583
0.27035,56.6314
0.27041,56.6797
0.270473,56.7278
0.270534,56.7752
0.270603,56.822
0.270673,56.8684
0.270747,56.9141
0.27082,56.959
0.270896,57.0037
0.270976,57.0476
0.271052,57.0911
0.271132,57.1338
0.271211,57.1758
0.271291,57.2171
0.271369,57.2581
0.271448,57.2986
0.27153,57.3389
0.271608,57.3787
0.271689,57.4175
0.271778,57.4551
0.271869,57.4898
0.271965,57.5215
0.272068,57.5507
0.272177,57.5767
0.272346,57.5749
0.272558,57.5499
0.272799,57.5108
0.273072,57.4559
0.273474,57.3407
0.277655,55.3875
