"Maximum force",100.198,"N"
"Gage length ",1.15904,"mm"
"Strain energy",12.0803,"mJ"
"Deformation at maximum force",0.179832,"mm"
"Standard travel","Standard force"
"mm","N"
0,0.0888694
-5.75185e-006,0.0888458
-8.55327e-006,0.0887909
-1.44243e-005,0.0888222
-1.73301e-005,0.0888222
-2.0206e-005,0.0888066
-2.61366e-005,0.088869
-2.90424e-005,0.0888614
-3.21716e-005,0.088963
-3.51518e-005,0.0890023
-3.83407e-005,0.0891349
-4.13954e-005,0.0892059
-4.42713e-005,0.0891904
-4.73559e-005,0.0892762
-5.00381e-005,0.0891671
-5.27799e-005,0.0890888
-5.22546e-005,0.088839
-5.4922e-005,0.0887284
-5.45327e-005,0.0885405
-5.69019e-005,0.0882906
-5.95096e-005,0.0881485
-5.91725e-005,0.0879845
-6.20335e-005,0.0879683
-6.17821e-005,0.0878434
-6.17968e-005,0.0878507
-6.4777e-005,0.0878898
-6.78467e-005,0.087968
-6.82378e-005,0.0881483
-6.86346e-005,0.0883361
-6.91934e-005,0.0886013
-7.22779e-005,0.088689
-7.26802e-005,0.0888769
-7.28963e-005,0.0889784
-7.30779e-005,0.0890647
-7.33908e-005,0.0892135
-7.64307e-005,0.0892765
-7.65303e-005,0.0893234
-7.62006e-005,0.089167
-7.8853e-005,0.0890497
-7.84619e-005,0.0888618
-7.8e-005,0.0886425
-7.75697e-005,0.0884384
-7.98049e-005,0.0881256
-7.94174e-005,0.0879377
-7.87581e-005,0.0876249
-8.12316e-005,0.0874199
-8.09355e-005,0.0872797
-8.08526e-005,0.0872399
-8.38477e-005,0.0872866
-8.40563e-005,0.0873806
-8.46151e-005,0.0876457
-8.4997e-005,0.0878269
-8.56564e-005,0.0881397
-8.9173e-005,0.0884296
-8.96573e-005,0.0886575
-9.01025e-005,0.0888683
-9.02524e-005,0.0889393
-9.04834e-005,0.089049
-9.01537e-005,0.0888936
-9.00378e-005,0.088838
-8.95088e-005,0.0885881
-8.91958e-005,0.0884384
-8.88159e-005,0.0882582
-8.83521e-005,0.0880388
-9.09896e-005,0.0879139
-9.04829e-005,0.0876707
-9.03656e-005,0.0876159
-9.02664e-005,0.0875689
-9.04638e-005,0.0876624
-9.06296e-005,0.087741
-9.09425e-005,0.0878898
-9.12573e-005,0.0880386
-9.44909e-005,0.088195
-9.4923e-005,0.0883991
-9.51726e-005,0.0885164
-9.56494e-005,0.0887434
-9.58171e-005,0.088822
-9.58669e-005,0.0888456
-9.61314e-005,0.0889706
-9.59666e-005,0.0888928
-9.58837e-005,0.0888537
-9.5472e-005,0.0886582
-9.53389e-005,0.0885953
-9.51731e-005,0.0885171
-9.51398e-005,0.088501
-9.50406e-005,0.088454
-9.4859e-005,0.0883682
-9.50397e-005,0.0884536
-9.509e-005,0.0884774
-9.54532e-005,0.0886491
-9.57344e-005,0.0887826
-9.58834e-005,0.0888531
-9.61312e-005,0.0889709
-9.60492e-005,0.0889321
-9.61973e-005,0.0890022
-9.59663e-005,0.088893
-9.61638e-005,0.0889864
-9.31388e-005,0.0889244
-9.3159e-005,0.0889397
-9.03725e-005,0.0889945
-8.76008e-005,0.089057
-8.2445e-005,0.0893698
-8.01503e-005,0.0896597
-7.54117e-005,0.0901594
-6.79313e-005,0.0907469
-6.06595e-005,0.0914374
-5.33878e-005,0.0921202
-4.61756e-005,0.0928412
-3.64005e-005,0.0936995
-2.64465e-005,0.0945006
-1.39891e-005,0.0954848
-1.17411e-006,0.0963011
1.15813e-005,0.0971251
2.70785e-005,0.0980406
4.28141e-005,0.0988493
6.10531e-005,0.0998717
7.64311e-005,0.100806
9.44317e-005,0.101943
0.000115055,0.103156
0.000132698,0.104484
0.000156182,0.10575
0.000179547,0.107032
0.000203151,0.108268
0.000226992,0.109382
0.000250357,0.110663
0.00027706,0.111777
0.000304121,0.112762
0.0003344,0.113528
0.000365156,0.114085
0.000395912,0.114635
0.000430244,0.114949
0.000464577,0.115214
0.000499147,0.115286
0.000536817,0.11538
0.000574964,0.115279
0.000613111,0.115107
0.000650781,0.115059
0.000692028,0.114825
0.000733036,0.114715
0.000777143,0.114504
0.000820774,0.114425
0.000861544,0.114347
0.000908035,0.114354
0.000951666,0.114417
0.000997919,0.114503
0.00104107,0.11473
0.00108733,0.114816
0.00113644,0.114996
0.00118007,0.114989
0.00122609,0.11516
0.00127496,0.11541
0.00132098,0.115708
0.00136985,0.115967
0.00141539,0.116406
0.00146307,0.117157
0.00150766,0.118142
0.00155439,0.119408
0.00160326,0.120995
0.00165166,0.122857
0.00169362,0.125023
0.00174107,0.127343
0.00178804,0.129891
0.00183167,0.132546
0.00187864,0.13514
0.00192537,0.137734
0.00197257,0.14016
0.00202312,0.142464
0.002077,0.144448
0.00212826,0.146355
0.00218,0.147927
0.00223197,0.149475
0.00229015,0.150895
0.00234212,0.152337
0.0024003,0.153763
0.00245537,0.155159
0.00251307,0.156762
0.00256743,0.158509
0.00262155,0.160439
0.00268139,0.162392
0.00273837,0.164284
0.00279512,0.166298
0.0028521,0.168251
0.0029117,0.170372
0.00297107,0.172463
0.00302758,0.17466
0.0030867,0.176903
0.00314559,0.17936
0.00320091,0.181984
0.00325884,0.184822
0.0033132,0.187996
0.00336756,0.191246
0.00342407,0.194756
0.00348319,0.198433
0.00353612,0.202279
0.00359144,0.206368
0.00364675,0.210427
0.00369872,0.214669
0.00375356,0.219033
0.00380792,0.223519
0.00386252,0.228035
0.00391664,0.232674
0.00397338,0.237404
0.00403013,0.242196
0.00408663,0.24717
0.00414338,0.251961
0.0042025,0.256966
0.00425877,0.261971
0.0043179,0.266945
0.00437726,0.27192
0.00443353,0.276925
0.00449552,0.282021
0.00455751,0.287026
0.00461664,0.292031
0.00467553,0.297188
0.00473608,0.302895
0.00479497,0.309456
0.00485458,0.317025
0.00490822,0.326119
0.00495877,0.336556
0.0050055,0.348824
0.00505127,0.362862
0.00509014,0.378853
0.00512804,0.396798
0.00516238,0.416329
0.00519337,0.437447
0.00522508,0.459664
0.00525429,0.482979
0.00527884,0.507149
0.00530805,0.531929
0.00533344,0.557076
0.00536146,0.582344
0.00538875,0.607979
0.00541558,0.633736
0.00544466,0.659981
0.00547351,0.686226
0.00550177,0.712838
0.00553026,0.739205
0.00556173,0.765694
0.00559272,0.792183
0.00562348,0.818917
0.00565662,0.845894
0.00568976,0.872994
0.00571944,0.900338
0.00575163,0.927681
0.00578358,0.955269
0.00581457,0.983223
0.00584533,1.01142
0.00587537,1.03986
0.00590779,1.06855
0.0059364,1.09773
0.00596692,1.12727
0.00599708,1.15717
0.00602927,1.18732
0.00605823,1.21772
0.00608899,1.24848
0.00612261,1.27937
0.00615503,1.31086
0.00618722,1.34235
0.00621869,1.37434
0.00625278,1.40632
0.00628378,1.43855
0.00631716,1.47102
0.00635006,1.50349
0.00638248,1.53645
0.00641467,1.5694
0.00644638,1.60236
0.00647809,1.63581
0.00651194,1.66926
0.00654246,1.70295
0.0065787,1.73689
0.00661423,1.77082
0.00664927,1.80524
0.00668313,1.84016
0.00671865,1.87556
0.00675346,1.91145
0.00678708,1.94807
0.00682284,1.98469
0.00685789,2.0218
0.00689508,2.05915
0.00692894,2.09699
0.00696494,2.13483
0.00699784,2.17316
0.00703289,2.21149
0.00706555,2.24983
0.0071006,2.2884
0.00713541,2.32697
0.00716998,2.36555
0.00720693,2.40461
0.00724341,2.44367
0.00727918,2.48322
0.00731422,2.52326
0.00735118,2.56355
0.00738766,2.60407
0.00742318,2.64509
0.00746133,2.6861
0.00749947,2.72736
0.00753691,2.76887
0.00757386,2.81062
0.00761082,2.85236
0.00764753,2.89411
0.00768425,2.9361
0.00772383,2.97785
0.0077603,3.01984
0.00779893,3.06208
0.00783994,3.10456
0.00787999,3.14753
0.00791981,3.19074
0.00796153,3.2342
0.00800278,3.27815
0.00804283,3.32233
0.00808193,3.36726
0.00812055,3.41242
0.00816132,3.45783
0.00820209,3.50324
0.00823905,3.5489
0.00827886,3.5948
0.0083182,3.64094
0.00835397,3.68733
0.00839497,3.73396
0.00843241,3.78108
0.0084696,3.82819
0.0085087,3.8758
0.00854732,3.92365
0.00858523,3.97175
0.00862553,4.02009
0.00866773,4.06892
0.00870349,4.11823
0.00874235,4.16731
0.0087805,4.21662
0.00881554,4.26618
0.00885274,4.31599
0.00888945,4.36604
0.00892522,4.41657
0.00896336,4.46735
0.00900151,4.51838
0.00904466,4.56941
0.009084,4.62092
0.00912239,4.67316
0.00916626,4.72541
0.00920655,4.7779
0.00924923,4.83064
0.00928904,4.88337
0.00932862,4.93635
0.00936772,4.98933
0.00940563,5.04304
0.0094433,5.09675
0.00948312,5.15095
0.00952222,5.20539
0.00956036,5.26032
0.00960042,5.31574
0.00964,5.37116
0.00968172,5.42732
0.00971987,5.48371
0.0097573,5.54035
0.00979735,5.59699
0.00983669,5.65412
0.00987532,5.71174
0.0099106,5.76911
0.00995089,5.82722
0.00999357,5.88557
0.0100351,5.94441
0.0100753,6.00373
0.0101152,6.06355
0.0101595,6.1236
0.0102034,6.18415
0.010247,6.24494
0.0102904,6.30549
0.0103305,6.36652
0.0103703,6.42732
0.0104101,6.48835
0.0104528,6.54939
0.0104926,6.61042
0.0105343,6.67194
0.010576,6.73347
0.010623,6.79524
0.0106669,6.85725
0.0107134,6.91901
0.0107565,6.98127
0.0107997,7.04353
0.0108392,7.10603
0.0108844,7.1688
0.0109282,7.23179
0.0109719,7.29527
0.0110174,7.35874
0.0110649,7.42319
0.0111087,7.48765
0.0111571,7.55308
0.0112019,7.61851
0.0112482,7.68491
0.0112878,7.75132
0.0113271,7.81821
0.0113688,7.88511
0.0114077,7.952
0.0114458,8.01939
0.0114833,8.08726
0.0115224,8.15513
0.011561,8.22398
0.0116018,8.29282
0.0116418,8.36167
0.0116783,8.4315
0.0117172,8.50132
0.0117522,8.57114
0.0117856,8.64243
0.011818,8.71372
0.0118523,8.7855
0.0118855,8.85777
0.0119232,8.93101
0.011957,9.00474
0.011993,9.07847
0.0120278,9.15269
0.0120622,9.22739
0.0120927,9.30259
0.012123,9.37778
0.012153,9.45298
0.0121828,9.52818
0.0122127,9.60386
0.0122451,9.67905
0.0122776,9.75474
0.0123121,9.83042
0.0123465,9.90659
0.0123801,9.98325
0.012413,10.0599
0.0124428,10.1366
0.0124745,10.2137
0.0125053,10.2914
0.0125382,10.3695
0.0125703,10.4481
0.0126047,10.5267
0.0126438,10.6058
0.0126791,10.6859
0.0127167,10.7655
0.012748,10.846
0.0127811,10.9266
0.0128138,11.0077
0.012846,11.0887
0.0128772,11.1703
0.012911,11.2523
0.0129444,11.3343
0.0129802,11.4164
0.0130157,11.4984
0.0130508,11.5814
0.0130851,11.6639
0.0131158,11.7474
0.0131492,11.8304
0.0131819,11.9144
0.0132141,11.9984
0.0132548,12.0824
0.0132925,12.1664
0.0133323,12.2508
0.0133717,12.3353
0.0134077,12.4203
0.0134434,12.5052
0.0134787,12.5902
0.0135166,12.6756
0.0135488,12.7611
0.0135891,12.8465
0.0136287,12.9325
0.0136647,13.0189
0.0137,13.1053
0.0137376,13.1922
0.0137741,13.2796
0.0138065,13.3675
0.0138404,13.4564
0.0138728,13.5458
0.0139095,13.6356
0.0139453,13.7259
0.0139835,13.8167
0.0140204,13.9081
0.0140564,13.9999
0.0140886,14.0921
0.0141198,14.1849
0.0141503,14.2777
0.0141805,14.3709
0.0142105,14.4642
0.0142461,14.5575
0.0142842,14.6507
0.0143181,14.745
0.0143507,14.8397
0.0143817,14.9354
0.0144113,15.0316
0.0144456,15.1278
0.0144826,15.225
0.0145214,15.3221
0.0145627,15.4198
0.0146001,15.5174
0.0146368,15.6161
0.0146702,15.7147
0.0147057,15.8133
0.0147413,15.912
0.0147768,16.0111
0.0148176,16.1102
0.0148552,16.2093
0.0148953,16.3089
0.0149313,16.409
0.0149659,16.5096
0.0150019,16.6112
0.0150393,16.7132
0.0150765,16.8153
0.0151192,16.9178
0.0151618,17.0199
0.0152014,17.1224
0.0152379,17.225
0.0152739,17.328
0.015307,17.4305
0.0153433,17.5331
0.0153807,17.6356
0.0154184,17.7372
0.0154596,17.8392
0.0155013,17.9408
0.0155426,18.0433
0.0155834,18.1459
0.0156234,18.2484
0.0156663,18.3514
0.0157121,18.454
0.0157605,18.557
0.0158056,18.66
0.0158502,18.7635
0.0158914,18.867
0.0159322,18.971
0.0159698,19.0751
0.0160104,19.1791
0.0160509,19.2826
0.0160914,19.3866
0.0161346,19.4906
0.0161746,19.5951
0.0162111,19.6996
0.0162528,19.8041
0.0162905,19.9095
0.016331,20.015
0.0163799,20.1205
0.0164226,20.2259
0.0164705,20.3324
0.0165149,20.4383
0.0165559,20.5448
0.0165995,20.6517
0.0166431,20.7582
0.016687,20.8651
0.0167337,20.9715
0.0167805,21.078
0.0168265,21.1849
0.0168692,21.2918
0.0169142,21.3993
0.0169614,21.5072
0.0170089,21.6146
0.0170589,21.7225
0.0171088,21.8304
0.0171584,21.9383
0.0172072,22.0467
0.0172525,22.1551
0.0172983,22.264
0.0173438,22.3724
0.0173927,22.4808
0.0174416,22.5892
0.0174931,22.6976
0.0175408,22.8065
0.0175842,22.9159
0.0176302,23.0257
0.0176755,23.1356
0.0177265,23.2459
0.0177799,23.3563
0.0178295,23.4671
0.0178817,23.578
0.0179299,23.6893
0.0179768,23.8016
0.0180202,23.9139
0.0180691,24.0262
0.0181178,24.139
0.0181688,24.2518
0.018216,24.3656
0.0182615,24.4793
0.0183059,24.5941
0.0183574,24.7098
0.0184029,24.8255
0.018457,24.9408
0.0185107,25.057
0.0185634,25.1732
0.0186096,25.2899
0.0186611,25.4066
0.0187097,25.5238
0.0187617,25.64
0.018817,25.7567
0.0188723,25.8729
0.0189205,25.9901
0.0189706,26.1078
0.019023,26.2254
0.0190781,26.3436
0.0191363,26.4613
0.0191942,26.5794
0.0192517,26.6976
0.0193053,26.8163
0.0193559,26.9349
0.0194033,27.0541
0.019451,27.1727
0.0195046,27.2914
0.0195557,27.41
0.0196033,27.5287
0.0196496,27.6483
0.0196949,27.7679
0.0197426,27.888
0.0197895,28.0086
0.0198422,28.1292
0.0198944,28.2499
0.0199374,28.3709
0.0199824,28.4925
0.0200208,28.6141
0.0200649,28.7362
0.0201062,28.8578
0.0201496,28.9803
0.0201951,29.1029
0.0202332,29.2259
0.0202721,29.3504
0.0203095,29.4754
0.0203484,29.6014
0.0203892,29.7274
0.0204316,29.8543
0.0204697,29.9823
0.0205031,30.1102
0.020536,30.2391
0.0205711,30.368
0.0206061,30.4969
0.0206474,30.6258
0.0206853,30.7547
0.0207194,30.8846
0.0207559,31.0145
0.0207885,31.1444
0.0208302,31.2743
0.0208751,31.4042
0.0209168,31.535
0.0209607,31.6649
0.0210009,31.7958
0.0210403,31.9266
0.0210765,32.0584
0.0211187,32.1893
0.0211609,32.3202
0.0212024,32.452
0.0212394,32.5848
0.021272,32.7176
0.0213095,32.8514
0.0213495,32.9842
0.0213946,33.119
0.0214363,33.2528
0.021474,33.3876
0.0215135,33.5233
0.0215495,33.659
0.0215908,33.7948
0.0216292,33.9305
0.0216699,34.0663
0.0217095,34.203
0.0217467,34.3407
0.021783,34.4793
0.0218235,34.618
0.0218686,34.7577
0.0219124,34.8983
0.0219575,35.0389
0.021998,35.1815
0.0220347,35.3231
0.0220707,35.4657
0.0221125,35.6092
0.0221566,35.7518
0.0221942,35.8954
0.0222338,36.0389
0.0222734,36.1825
0.0223156,36.326
0.0223614,36.4696
0.0224107,36.6131
0.0224601,36.7557
0.0225011,36.8993
0.0225454,37.0418
0.022585,37.1844
0.0226313,37.326
0.022678,37.4676
0.0227216,37.6092
0.0227614,37.7518
0.0228072,37.8934
0.0228499,38.036
0.0229016,38.1776
0.02295,38.3202
0.0229946,38.4627
0.023033,38.6063
0.0230716,38.7489
0.023111,38.8915
0.0231565,39.0331
0.0231999,39.1756
0.0232397,39.3172
0.0232786,39.4598
0.0233229,39.6024
0.0233673,39.7459
0.0234204,39.8885
0.0234674,40.0311
0.0235134,40.1747
0.0235587,40.3182
0.0236011,40.4618
0.0236498,40.6053
0.0237013,40.7499
0.0237497,40.8934
0.023795,41.037
0.0238434,41.1805
0.0238953,41.3241
0.0239485,41.4667
0.0240084,41.6092
0.0240634,41.7508
0.024119,41.8924
0.0241753,42.034
0.024232,42.1747
0.024293,42.3153
0.0243545,42.4549
0.024413,42.5956
0.0244711,42.7352
0.0245288,42.8758
0.0245956,43.0165
0.0246619,43.1571
0.0247281,43.2977
0.0247911,43.4383
0.0248514,43.5799
0.0249143,43.7206
0.0249773,43.8612
0.0250455,44.0018
0.025107,44.1434
0.025168,44.286
0.0252334,44.4276
0.0253049,44.5702
0.0253797,44.7127
0.0254527,44.8543
0.0255228,44.9959
0.0255967,45.1366
0.0256687,45.2772
0.025745,45.4178
0.0258251,45.5575
0.0259004,45.6961
0.025982,45.8348
0.0260654,45.9725
0.0261532,46.1102
0.0262438,46.2479
0.026332,46.3846
0.0264126,46.5213
0.0264903,46.6581
0.0265728,46.7938
0.0266562,46.9286
0.0267411,47.0633
0.0268207,47.1971
0.0269004,47.3319
0.026981,47.4647
0.0270711,47.5985
0.0271598,47.7313
0.0272447,47.8641
0.0273243,47.9969
0.0274053,48.1288
0.0274874,48.2606
0.0275746,48.3915
0.0276566,48.5213
0.0277391,48.6512
0.0278226,48.7811
0.0279084,48.909
0.0280038,49.036
0.0281101,49.159
0.0282269,49.2752
0.0286733,49.2308
0.0294667,49.0169
0.030264,48.8041
0.0310613,48.5912
0.0318547,48.3792
0.0326444,48.1673
0.033434,47.9554
0.0342122,47.7435
0.0349637,47.5345
0.0356809,47.3294
0.0360528,47.284
0.0360625,47.4071
0.0360757,47.5282
0.0360903,47.6478
0.0361109,47.7655
0.0361338,47.8822
0.0361603,47.9984
0.036189,48.1151
0.0362143,48.2318
0.0362385,48.3495
0.0362588,48.4671
0.0362842,48.5858
0.0363121,48.704
0.0363425,48.8226
0.0363726,48.9417
0.0364074,49.0609
0.0364307,49.18
0.0364622,49.2997
0.0364874,49.4193
0.0365184,49.5394
0.0365467,49.659
0.0365808,49.7787
0.036614,49.8988
0.0366462,50.0194
0.0366742,50.1405
0.0367099,50.2621
0.0367455,50.3841
0.036781,50.5057
0.0368253,50.6278
0.0368661,50.7499
0.0369038,50.8719
0.036941,50.994
0.0369789,51.1161
0.0370206,51.2381
0.0370664,51.3592
0.0371129,51.4798
0.037156,51.6004
0.0372011,51.722
0.037243,51.8436
0.037291,51.9652
0.0373427,52.0858
0.0373954,52.2064
0.0374555,52.326
0.0375074,52.4457
0.0375599,52.5648
0.0376107,52.6834
0.0376629,52.8016
0.0377192,52.9188
0.0377766,53.036
0.0378336,53.1527
0.037887,53.2704
0.0379387,53.3885
0.0379886,53.5077
0.0380401,53.6273
0.0380904,53.7474
0.0381414,53.869
0.0381876,53.9911
0.0382267,54.1141
0.038267,54.2376
0.0383007,54.3617
0.0383424,54.4862
0.0383805,54.6112
0.0384211,54.7362
0.0384571,54.8612
0.0384916,54.9881
0.038525,55.1151
0.0385608,55.242
0.0385984,55.37
0.0386394,55.4979
0.0386812,55.6249
0.0387367,55.7459
0.0388865,55.8207
0.0390486,55.8871
0.0392279,55.9479
0.0394224,56.0025
0.0396294,56.0516
0.0398478,56.0936
0.0400814,56.128
0.0403179,56.1582
0.0405621,56.1859
0.0407957,56.2179
0.0409349,56.2936
0.041057,56.3766
0.0411691,56.463
0.0412673,56.5548
0.041356,56.6505
0.0414332,56.7525
0.0414967,56.8609
0.0415522,56.9728
0.0415994,57.0875
0.0416423,57.2047
0.0416845,57.3233
0.0417239,57.443
0.0417587,57.5641
0.0418035,57.6852
0.0418471,57.8072
0.0418891,57.9303
0.0419239,58.0538
0.0419573,58.1783
0.0419899,58.3028
0.0420281,58.4273
0.0420624,58.5523
0.042102,58.6783
0.0421366,58.8043
0.0421665,58.9313
0.0421996,59.0602
0.0422347,59.1891
0.0422685,59.3189
0.0423098,59.4488
0.0423472,59.5797
0.0423861,59.7115
0.0424204,59.8434
0.0424535,59.9762
0.0424865,60.109
0.0425248,60.2418
0.0425633,60.3758
0.0425981,60.5086
0.0426322,60.6424
0.0426678,60.7771
0.0427028,60.9119
0.0427433,61.0467
0.0427843,61.1805
0.0428285,61.3152
0.042864,61.45
0.0429024,61.5838
0.0429355,61.7186
0.0429717,61.8523
0.0430118,61.9861
0.0430523,62.1199
0.0430867,62.2527
0.0431231,62.3875
0.0431618,62.5213
0.0431975,62.6561
0.0432416,62.7898
0.0432826,62.9246
0.0433263,63.0594
0.0433601,63.1951
0.043393,63.3309
0.0434259,63.4666
0.0434591,63.6023
0.0434948,63.7381
0.0435304,63.8738
0.0435585,64.0105
0.0435916,64.1473
0.0436238,64.285
0.0436615,64.4227
0.0437018,64.5594
0.0437387,64.698
0.0437747,64.8357
0.0438105,64.9744
0.043846,65.1131
0.043882,65.2518
0.0439238,65.3904
0.043965,65.5291
0.0440024,65.6678
0.0440363,65.8074
0.044073,65.9471
0.0441166,66.0857
0.0441648,66.2244
0.0442144,66.3621
0.0442645,66.4988
0.044309,66.6355
0.0443543,66.7723
0.0444037,66.909
0.0444573,67.0447
0.0445112,67.1795
0.044561,67.3162
0.0446087,67.4529
0.0446535,67.5906
0.0447027,67.7303
0.044753,67.8699
0.044804,68.0115
0.0448495,68.1531
0.0448872,68.2967
0.0449261,68.4402
0.0449625,68.5857
0.0450004,68.7312
0.0450393,68.8787
0.0450729,69.0262
0.0451042,69.1756
0.0451392,69.326
0.0451785,69.4764
0.0452196,69.6277
0.0452565,69.7801
0.0452887,69.9334
0.0453228,70.0867
0.0453562,70.24
0.0453926,70.3934
0.0454284,70.5477
0.045463,70.702
0.0454997,70.8572
0.0455359,71.0125
0.045575,71.1678
0.0456225,71.323
0.0456668,71.4783
0.045705,71.6336
0.0457349,71.7889
0.0457702,71.9451
0.0458088,72.1004
0.0458422,72.2557
0.0458784,72.4109
0.0459081,72.5662
0.0459403,72.7215
0.0459784,72.8777
0.0460202,73.033
0.046059,73.1883
0.0460946,73.3436
0.0461275,73.4988
0.0461606,73.6541
0.0461937,73.8094
0.0462295,73.9646
0.0462648,74.1199
0.0462936,74.2762
0.0463275,74.4324
0.0463611,74.5887
0.0464031,74.7459
0.0464446,74.9021
0.0464834,75.0594
0.0465197,75.2156
0.0465571,75.3719
0.0466021,75.5262
0.0466465,75.6805
0.046693,75.8338
0.0467414,75.9861
0.0467953,76.1365
0.0468551,76.2859
0.0469204,76.4344
0.0469901,76.5799
0.0470644,76.7234
0.0471426,76.8631
0.0472356,76.9959
0.0473453,77.1228
0.0474669,77.2425
0.0476071,77.3533
0.048042,77.3196
0.0495221,76.7806
0.0510403,76.2298
0.0525509,75.679
0.0540768,75.1204
0.0556103,74.5579
0.0571591,73.9837
0.0587078,73.4056
0.0602185,72.8196
0.0617062,72.2259
0.0628811,71.761
0.0630194,71.7853
0.0631606,71.8044
0.0633313,71.8103
0.0635306,71.8038
0.0637566,71.7847
0.0640007,71.7546
0.064262,71.7175
0.0645329,71.6759
0.0648095,71.6308
0.0650917,71.582
0.0653778,71.5273
0.0656697,71.4684
0.0659615,71.4084
0.0662476,71.351
0.0665127,71.3012
0.0667559,71.2612
0.0669819,71.2292
0.0671879,71.2041
0.0673787,71.1864
0.0675465,71.1769
0.0676924,71.1779
0.0678173,71.1892
0.0679199,71.2085
0.0680071,71.2337
0.0680877,71.2636
0.0681611,71.2966
0.0682298,71.3322
0.0682942,71.3701
0.068354,71.4101
0.0684101,71.4516
0.0684687,71.4951
0.0685254,71.5393
0.0685805,71.5842
0.0686339,71.6301
0.0686859,71.6765
0.0687343,71.7234
0.0687846,71.7705
0.0688285,71.8181
0.068875,71.8659
0.0689217,71.9135
0.0689653,71.9612
0.0690149,72.0088
0.0690614,72.0566
0.0691105,72.1045
0.0691589,72.1526
0.0692042,72.2009
0.0692545,72.2497
0.0693046,72.2986
0.0693537,72.3476
0.0693995,72.3972
0.0694503,72.4472
0.0694939,72.4975
0.0695363,72.5488
0.06958,72.6006
0.0696219,72.6533
0.0696615,72.7072
0.0696994,72.7619
0.0697414,72.8174
0.0697791,72.8737
0.0698182,72.9304
0.0698565,72.9878
0.0698909,73.0456
0.0699269,73.104
0.0699595,73.1626
0.0699917,73.2214
0.0700265,73.2805
0.070058,73.3396
0.0700916,73.3991
0.0701213,73.4592
0.0701525,73.52
0.0701857,73.5813
0.0702181,73.6428
0.0702496,73.7048
0.0702863,73.7671
0.0703166,73.8296
0.0703432,73.8925
0.0703749,73.9555
0.0704028,74.0195
0.0704332,74.0835
0.0704651,74.1479
0.0704961,74.2129
0.0705254,74.2788
0.0705567,74.3452
0.0705896,74.4121
0.0706215,74.4795
0.0706525,74.5473
0.0706827,74.6157
0.0707117,74.6845
0.07074,74.7534
0.0707678,74.8227
0.0707979,74.8925
0.0708245,74.9624
0.0708535,75.0327
0.0708842,75.1035
0.0709142,75.1748
0.0709435,75.2461
0.0709722,75.3178
0.0710032,75.3901
0.071034,75.4619
0.0710614,75.5346
0.0710886,75.6069
0.0711183,75.6797
0.07115,75.7529
0.0711812,75.8261
0.0712117,75.8999
0.0712446,75.9736
0.0712797,76.0483
0.0713114,76.1225
0.0713452,76.1972
0.071376,76.2724
0.0714094,76.3476
0.0714392,76.4228
0.0714742,76.4985
0.0715064,76.5747
0.0715348,76.6504
0.0715691,76.7265
0.0716032,76.8027
0.0716368,76.8794
0.0716731,76.9555
0.0717057,77.0327
0.0717374,77.1098
0.071771,77.188
0.071801,77.2661
0.0718297,77.3447
0.0718635,77.4238
0.0718993,77.5034
0.0719341,77.5835
0.0719711,77.664
0.0720071,77.7446
0.0720428,77.8257
0.0720779,77.9072
0.0721101,77.9883
0.0721425,78.0693
0.0721778,78.1508
0.0722126,78.2319
0.0722474,78.3134
0.0722844,78.3955
0.0723208,78.4775
0.0723597,78.5595
0.0723976,78.6425
0.0724293,78.7256
0.072466,78.8086
0.0725016,78.8925
0.0725392,78.977
0.072579,79.0615
0.0726186,79.1465
0.0726611,79.2309
0.0727066,79.3159
0.0727495,79.4004
0.0727929,79.4848
0.0728365,79.5688
0.0728804,79.6528
0.072925,79.7368
0.0729708,79.8198
0.0730211,79.9023
0.0730759,79.9839
0.0731341,80.0639
0.073197,80.1416
0.0732647,80.2153
0.0733391,80.2846
0.0734273,80.3501
0.0735251,80.4126
0.0736305,80.4726
0.0737416,80.53
0.0738646,80.5798
0.0741717,80.5434
0.0755984,79.9614
0.0771243,79.3364
0.0787951,78.6372
0.0806185,77.8637
0.0824801,77.0669
0.0843874,76.2505
0.0863024,75.4223
0.0882021,74.5825
0.0900713,73.7348
0.0917422,72.9614
0.0922572,72.7182
0.0926863,72.5141
0.0929762,72.3745
0.093125,72.3032
0.093238,72.2473
0.0933319,72.1992
0.0934087,72.1577
0.093475,72.1216
0.0935313,72.0888
0.0935787,72.0588
0.0936245,72.0311
0.0936636,72.0052
0.0937027,71.9807
0.0937358,71.9576
0.0937663,71.936
0.0937973,71.9154
0.0938264,71.8957
0.0938537,71.8769
0.0938794,71.859
0.0939034,71.8416
0.0939261,71.8252
0.0939475,71.8092
0.0939677,71.7938
0.0939896,71.779
0.0940107,71.7646
0.0940304,71.7509
0.0940491,71.7376
0.09407,71.7248
0.09409,71.7122
0.0941092,71.7002
0.0941276,71.6885
0.0941453,71.6771
0.0941653,71.666
0.0941848,71.6552
0.0942036,71.6447
0.094222,71.6345
0.0942397,71.6245
0.0942598,71.6148
0.0942793,71.6054
0.0942985,71.5961
0.0943176,71.5869
0.0943362,71.578
0.0943546,71.569
0.0943726,71.5603
0.0943905,71.5517
0.0944079,71.5433
0.0944249,71.5351
0.0944444,71.5271
0.094464,71.519
0.094483,71.5112
0.0945048,71.5034
0.0945267,71.4958
0.0945482,71.4881
0.094573,71.4803
0.0945949,71.4726
0.0946231,71.4646
0.0946517,71.4564
0.0946778,71.448
0.09471,71.4395
0.0947398,71.4307
0.0947729,71.4217
0.0948068,71.4124
0.094844,71.4029
0.094879,71.3929
0.0949184,71.3823
0.0949623,71.371
0.0950056,71.3585
0.0950557,71.3441
0.0951122,71.3267
0.0951833,71.3036
0.0952715,71.2723
0.0953812,71.2306
0.0955147,71.1771
0.0956949,71.1039
0.0959114,71.0106
0.0961498,70.9086
0.096394,70.8026
0.0966419,70.6947
0.0968861,70.5873
0.0971245,70.4843
0.0973419,70.3876
0.0975403,70.3002
0.0977091,70.224
0.0978359,70.1671
0.0979198,70.1307
0.0979823,70.1034
0.0980345,70.0811
0.0980793,70.0621
0.0981218,70.0458
0.0981575,70.0314
0.09819,70.0185
0.0982226,70.007
0.0982502,69.9965
0.0982788,69.9869
0.0983057,69.9781
0.0983312,69.97
0.098358,69.9626
0.0983839,69.9557
0.0984085,69.9495
0.0984318,69.9438
0.098457,69.9387
0.0984782,69.9341
0.0985009,69.9301
0.0985253,69.9268
0.0985485,69.924
0.0985707,69.9217
0.0985916,69.92
0.0986143,69.9189
0.0986331,69.9182
0.0986566,69.9181
0.0986757,69.9187
0.0986966,69.9198
0.0987164,69.9215
0.0987321,69.9237
0.0987555,69.9265
0.0987718,69.9298
0.0987898,69.9338
0.0988064,69.9384
0.0988244,69.9437
0.0988411,69.9497
0.0988567,69.9562
0.0988741,69.9632
0.0988873,69.9709
0.0989022,69.9791
0.0989188,69.988
0.0989313,69.9974
0.0989484,70.0074
0.0989615,70.0179
0.0989763,70.0289
0.098993,70.0406
0.0990054,70.0528
0.0990196,70.0656
0.0990326,70.079
0.0990444,70.0929
0.0990578,70.1075
0.09907,70.1227
0.0990843,70.1382
0.0990976,70.1542
0.0991097,70.1708
0.0991236,70.188
0.0991336,70.2056
0.0991486,70.2237
0.0991595,70.2422
0.0991724,70.2613
0.0991845,70.2807
0.0991956,70.3006
0.0992086,70.321
0.0992205,70.3418
0.0992317,70.3632
0.099242,70.3848
0.0992546,70.4069
0.0992693,70.4292
0.0992803,70.452
0.0992935,70.4751
0.0993032,70.4985
0.0993179,70.5223
0.099329,70.5464
0.0993394,70.5708
0.0993548,70.5957
0.0993663,70.621
0.09938,70.6467
0.0993928,70.6728
0.0994078,70.6993
0.099419,70.7261
0.0994321,70.7535
0.099444,70.7814
0.0994579,70.8097
0.0994706,70.8387
0.0994854,70.8681
0.0994994,70.8979
0.0995121,70.9281
0.0995241,70.9589
0.0995409,70.99
0.0995539,71.0215
0.0995661,71.0535
0.0995805,71.086
0.0995943,71.1187
0.0996072,71.1517
0.0996198,71.1849
0.0996315,71.2186
0.0996486,71.2525
0.0996618,71.2867
0.0996745,71.3213
0.0996896,71.3562
0.0997039,71.3914
0.0997204,71.4268
0.0997331,71.4629
0.0997508,71.4991
0.0997644,71.5362
0.09978,71.5735
0.0997945,71.6114
0.0998107,71.6499
0.0998258,71.689
0.0998427,71.7286
0.0998615,71.7686
0.0998765,71.8092
0.0998935,71.85
0.0999096,71.8912
0.0999281,71.933
0.0999431,71.9747
0.0999604,72.017
0.0999775,72.0592
0.0999941,72.1017
0.10001,72.1444
0.100029,72.1871
0.100048,72.2304
0.100066,72.2736
0.100086,72.3173
0.100103,72.361
0.100125,72.4052
0.100143,72.4496
0.100164,72.4943
0.100187,72.5394
0.100206,72.5846
0.100228,72.6303
0.100253,72.6759
0.100274,72.7218
0.100297,72.768
0.100318,72.8143
0.100338,72.8607
0.10036,72.9074
0.100386,72.9542
0.100407,73.0014
0.100434,73.0487
0.100457,73.0963
0.100486,73.1444
0.10051,73.193
0.100537,73.2416
0.100563,73.2909
0.100589,73.3405
0.100619,73.3903
0.100646,73.4403
0.100675,73.4909
0.100701,73.5414
0.10073,73.5922
0.100755,73.6434
0.100782,73.6945
0.100807,73.746
0.100833,73.7977
0.100859,73.8497
0.100885,73.902
0.100913,73.9545
0.10094,74.0072
0.10097,74.0602
0.100999,74.1134
0.101028,74.1669
0.10106,74.2203
0.101091,74.2741
0.101119,74.3278
0.101147,74.3817
0.101175,74.4354
0.101208,74.4896
0.101236,74.5438
0.101268,74.5983
0.1013,74.6532
0.101331,74.7084
0.101367,74.7638
0.1014,74.8197
0.101435,74.8756
0.101471,74.9315
0.101509,74.9872
0.101547,75.0421
0.101593,75.0944
0.101645,75.1422
0.101707,75.1849
0.101779,75.223
0.101868,75.2548
0.101971,75.2777
0.102105,75.2874
0.102277,75.2786
0.10251,75.2423
0.10281,75.1734
0.10317,75.0753
0.103569,74.9571
0.103986,74.8282
0.104416,74.6944
0.104843,74.5587
0.105261,74.4249
0.105661,74.2989
0.106025,74.1856
0.10634,74.0958
0.106584,74.035
0.106771,74.0015
0.106909,73.9876
0.107026,73.9849
0.107133,73.9882
0.107226,73.9952
0.10732,74.0046
0.107407,74.0157
0.107491,74.0283
0.10757,74.0422
0.107646,74.0576
0.107716,74.0743
0.107786,74.0924
0.107853,74.1116
0.107918,74.1323
0.10798,74.1541
0.108041,74.1771
0.108098,74.2012
0.108154,74.2264
0.108207,74.2524
0.108262,74.2791
0.108313,74.3066
0.108365,74.3347
0.108419,74.3635
0.108468,74.3929
0.10852,74.4229
0.108566,74.4537
0.108612,74.4852
0.108658,74.5174
0.1087,74.5504
0.108744,74.5841
0.108786,74.6182
0.108828,74.6531
0.10887,74.6885
0.108912,74.7247
0.108952,74.7615
0.108991,74.7987
0.109032,74.8365
0.109072,74.8748
0.109113,74.9139
0.109154,74.9532
0.109196,74.993
0.109235,75.033
0.109274,75.0736
0.109315,75.1141
0.109353,75.1546
0.109391,75.1951
0.109432,75.2354
0.109471,75.2759
0.10951,75.316
0.109549,75.356
0.109591,75.3963
0.109633,75.4361
0.109672,75.4761
0.109717,75.5162
0.10976,75.5562
0.109805,75.596
0.109853,75.6358
0.109903,75.6751
0.109953,75.7142
0.110002,75.7518
0.110052,75.7884
0.11011,75.8233
0.11017,75.8563
0.110238,75.8867
0.110313,75.9122
0.110443,75.9123
0.110932,75.7394
0.111729,75.4172
0.112572,75.0773
0.113438,74.7219
0.114334,74.3527
0.115261,73.968
0.11623,73.5637
0.117222,73.1379
0.118221,72.6984
0.119183,72.2648
0.119801,71.9894
0.120127,71.8449
0.120434,71.7072
0.120739,71.5734
0.121027,71.4426
0.121298,71.3195
0.12154,71.2087
0.121746,71.112
0.121931,71.027
0.122091,70.9509
0.122232,70.8845
0.122356,70.8259
0.122465,70.7734
0.122565,70.7255
0.122656,70.6813
0.122741,70.6401
0.122821,70.6018
0.122894,70.5661
0.122964,70.5327
0.123029,70.5012
0.12309,70.4716
0.123148,70.4438
0.123202,70.4175
0.123254,70.3926
0.123302,70.3691
0.123348,70.3469
0.123393,70.3255
0.123435,70.3054
0.123471,70.2862
0.123508,70.2681
0.123544,70.2509
0.123578,70.2346
0.12361,70.219
0.123641,70.2039
0.123671,70.1895
0.1237,70.1755
0.123728,70.1623
0.123754,70.1495
0.123779,70.1372
0.123804,70.1255
0.12383,70.1141
0.123856,70.1032
0.123883,70.0927
0.12391,70.0828
0.123938,70.0734
0.123965,70.0646
0.123994,70.0561
0.124019,70.0481
0.124047,70.0404
0.124074,70.0329
0.1241,70.0261
0.124128,70.0196
0.124155,70.0134
0.124181,70.0077
0.12421,70.0024
0.124237,69.9976
0.124264,69.9932
0.124292,69.9893
0.124319,69.986
0.124345,69.9832
0.124371,69.9809
0.124397,69.9793
0.12442,69.9783
0.124443,69.978
0.124466,69.9785
0.124489,69.9797
0.124509,69.9816
0.124529,69.9843
0.124551,69.9878
0.124571,69.9919
0.124587,69.9969
0.124608,70.0026
0.124623,70.0089
0.124641,70.0159
0.124655,70.0234
0.124673,70.0316
0.12469,70.0401
0.124706,70.0492
0.12472,70.059
0.124734,70.0693
0.124749,70.08
0.124764,70.0912
0.12478,70.103
0.124795,70.1154
0.12481,70.1282
0.124823,70.1414
0.124841,70.1552
0.124855,70.1694
0.124871,70.1841
0.124884,70.1992
0.124898,70.2147
0.124911,70.2308
0.124926,70.2472
0.124941,70.2639
0.124955,70.2813
0.124968,70.299
0.124982,70.3171
0.124996,70.3358
0.125008,70.355
0.125023,70.3744
0.125038,70.3943
0.125051,70.4146
0.125066,70.4352
0.125078,70.4563
0.125094,70.4778
0.125107,70.4998
0.125122,70.522
0.125136,70.5446
0.125149,70.5676
0.125165,70.5911
0.125179,70.6151
0.125192,70.6395
0.12521,70.6644
0.125222,70.6898
0.125238,70.7158
0.125253,70.7422
0.125267,70.7692
0.12528,70.7968
0.125297,70.8248
0.12531,70.8538
0.125325,70.8831
0.125338,70.9132
0.125356,70.9437
0.12537,70.9747
0.125383,71.0062
0.125398,71.0385
0.125412,71.0709
0.125426,71.1036
0.125438,71.1368
0.125453,71.1703
0.125468,71.204
0.125482,71.2379
0.125498,71.2723
0.125511,71.3068
0.125526,71.3414
0.125541,71.3766
0.125557,71.412
0.12557,71.4481
0.125588,71.4843
0.125602,71.5209
0.125619,71.5577
0.125634,71.5951
0.125649,71.6329
0.125669,71.671
0.125685,71.7096
0.125697,71.7487
0.125718,71.788
0.125734,71.8278
0.125753,71.8678
0.125768,71.9081
0.125786,71.9486
0.125803,71.9899
0.125819,72.0311
0.125834,72.0729
0.125851,72.1151
0.125868,72.1576
0.125887,72.2006
0.125901,72.2438
0.125918,72.2877
0.125936,72.3322
0.125954,72.3771
0.125973,72.4225
0.125992,72.4684
0.126012,72.5145
0.126029,72.5612
0.126051,72.608
0.12607,72.6552
0.126088,72.7025
0.126109,72.7499
0.126127,72.7975
0.12615,72.8451
0.12617,72.8929
0.12619,72.941
0.126213,72.9889
0.126233,73.037
0.126258,73.0853
0.126279,73.1337
0.126304,73.1823
0.126327,73.2311
0.126351,73.2802
0.126377,73.3292
0.126406,73.3785
0.126429,73.4279
0.126458,73.4769
0.126487,73.5262
0.126513,73.5756
0.126542,73.6246
0.126568,73.6737
0.126597,73.7228
0.126629,73.7719
0.126662,73.8207
0.126695,73.869
0.126734,73.9166
0.126778,73.9625
0.126828,74.0057
0.126886,74.0448
0.126958,74.079
0.127038,74.109
0.127125,74.1344
0.127225,74.1561
0.127326,74.175
0.12743,74.1919
0.127538,74.2075
0.127648,74.2231
0.127752,74.2402
0.127847,74.2602
0.127934,74.2845
0.128012,74.3124
0.128085,74.3444
0.128149,74.3798
0.128209,74.4179
0.128265,74.4584
0.128316,74.5009
0.128361,74.5453
0.128403,74.591
0.128448,74.6381
0.128485,74.6862
0.128526,74.7353
0.128565,74.7853
0.128601,74.8364
0.128636,74.8886
0.128671,74.9416
0.128705,74.9953
0.128741,75.05
0.128778,75.1052
0.12881,75.1608
0.128845,75.2172
0.128878,75.2741
0.128907,75.3315
0.128936,75.3891
0.12897,75.447
0.129001,75.5053
0.12903,75.5641
0.129059,75.6235
0.129089,75.683
0.129118,75.7436
0.129151,75.8044
0.129179,75.8657
0.129211,75.9272
0.12924,75.9892
0.129268,76.0517
0.129295,76.1142
0.129324,76.1772
0.129349,76.2407
0.129377,76.3046
0.129411,76.3686
0.12944,76.4326
0.129472,76.4975
0.129503,76.5629
0.129535,76.6284
0.129571,76.6938
0.129604,76.7592
0.129637,76.8251
0.129669,76.8906
0.129703,76.956
0.129733,77.0214
0.129767,77.0864
0.129798,77.1513
0.129835,77.2162
0.12987,77.2807
0.129905,77.3452
0.129946,77.4096
0.129983,77.4731
0.130027,77.5361
0.130069,77.5986
0.130116,77.6601
0.13016,77.7206
0.130211,77.7802
0.130261,77.8386
0.130318,77.8957
0.130377,77.9511
0.130443,78.0051
0.130516,78.0568
0.130591,78.1061
0.130674,78.1528
0.130764,78.1967
0.130855,78.2382
0.130948,78.2775
0.131044,78.3154
0.131142,78.352
0.131241,78.3884
0.13134,78.425
0.131437,78.4623
0.131531,78.5009
0.131622,78.5414
0.131705,78.5842
0.131787,78.6286
0.131867,78.673
0.131946,78.7162
0.13203,78.7585
0.132115,78.8005
0.132198,78.8432
0.132279,78.8867
0.132361,78.9313
0.132445,78.9767
0.132526,79.0231
0.132605,79.0705
0.132675,79.1208
0.132737,79.175
0.132793,79.2321
0.132842,79.2912
0.132891,79.3517
0.132938,79.4138
0.132979,79.4763
0.133021,79.5407
0.133063,79.6057
0.133104,79.6716
0.133143,79.7385
0.133183,79.8058
0.133218,79.8747
0.133251,79.944
0.133282,80.0148
0.133312,80.0861
0.133343,80.1584
0.133375,80.2316
0.133405,80.3054
0.133436,80.3796
0.133464,80.4548
0.133496,80.5309
0.133527,80.6071
0.133554,80.6838
0.133581,80.7609
0.133604,80.8381
0.133632,80.9157
0.133656,80.9938
0.133683,81.072
0.133709,81.1511
0.133737,81.2302
0.133761,81.3098
0.133787,81.3893
0.133817,81.4694
0.133842,81.5495
0.133867,81.6306
0.133891,81.7116
0.133913,81.7932
0.133938,81.8752
0.133964,81.9582
0.133993,82.0412
0.134021,82.1248
0.13405,82.2088
0.134078,82.2933
0.134106,82.3783
0.134133,82.4632
0.13416,82.5487
0.134186,82.6341
0.13421,82.7196
0.134239,82.805
0.134267,82.891
0.134298,82.9774
0.134326,83.0633
0.134359,83.1502
0.134389,83.2367
0.134421,83.3236
0.134447,83.4105
0.134479,83.4974
0.134514,83.5848
0.134549,83.6717
0.134591,83.7577
0.134636,83.8431
0.134685,83.9276
0.134735,84.0096
0.134787,84.0902
0.134846,84.1683
0.13491,84.244
0.13498,84.3167
0.135055,84.387
0.135142,84.4549
0.13523,84.5203
0.135324,84.5843
0.135414,84.6478
0.135507,84.7108
0.135595,84.7747
0.135684,84.8397
0.135773,84.9066
0.135862,84.9744
0.13594,85.0448
0.13602,85.117
0.136092,85.1917
0.136161,85.2679
0.136225,85.3451
0.136283,85.4242
0.136338,85.5042
0.136391,85.5853
0.136442,85.6673
0.136492,85.7498
0.13654,85.8333
0.136586,85.9178
0.136627,86.0028
0.136669,86.0892
0.136709,86.1766
0.136747,86.2655
0.136783,86.3543
0.136821,86.4442
0.136862,86.534
0.136905,86.6244
0.136944,86.7147
0.136981,86.805
0.137015,86.8953
0.137052,86.9857
0.137089,87.0755
0.137131,87.1644
0.137171,87.2533
0.137216,87.3411
0.137263,87.429
0.137309,87.5164
0.137355,87.6029
0.137403,87.6873
0.137464,87.7689
0.137546,87.8387
0.137746,87.8532
0.138348,87.6755
0.139081,87.4353
0.139847,87.1794
0.140633,86.9118
0.141442,86.6325
0.142274,86.3415
0.143117,86.0427
0.14396,85.7341
0.144776,85.4294
0.145482,85.1677
0.145795,85.0866
0.145993,85.0593
0.146183,85.035
0.146376,85.009
0.146576,84.9775
0.1468,84.9336
0.14708,84.8628
0.147425,84.7592
0.147841,84.6225
0.148307,84.4594
0.148799,84.2846
0.149295,84.104
0.149802,83.9204
0.150298,83.7387
0.150777,83.562
0.151225,83.3979
0.151606,83.2602
0.151911,83.1543
0.152143,83.083
0.152317,83.0373
0.15246,83.0044
0.152585,82.9793
0.152696,82.9605
0.152796,82.9461
0.152891,82.9353
0.152977,82.9276
0.153055,82.9231
0.153131,82.9217
0.153195,82.9231
0.15326,82.9268
0.153318,82.9323
0.153374,82.9393
0.153429,82.9474
0.153479,82.957
0.153527,82.9676
0.153573,82.9792
0.153622,82.9919
0.153667,83.0055
0.153709,83.0201
0.153753,83.0353
0.153795,83.0514
0.153836,83.0683
0.153875,83.0857
0.153913,83.1041
0.153953,83.1229
0.153991,83.1424
0.154024,83.1627
0.154057,83.1834
0.154094,83.2046
0.154127,83.2265
0.154163,83.2488
0.154194,83.2717
0.154227,83.295
0.154256,83.3188
0.154288,83.3428
0.154318,83.3674
0.154348,83.3921
0.15438,83.4174
0.154414,83.443
0.154442,83.4692
0.154474,83.4957
0.154511,83.5226
0.154542,83.5501
0.154574,83.5781
0.154608,83.6065
0.154638,83.6353
0.154674,83.6645
0.154706,83.6939
0.154737,83.7237
0.154771,83.7537
0.154801,83.784
0.154834,83.8146
0.154866,83.8454
0.154898,83.8762
0.15493,83.907
0.154962,83.938
0.154994,83.969
0.155028,84.0002
0.155062,84.0314
0.155096,84.0627
0.15513,84.0942
0.155163,84.1259
0.155198,84.1579
0.155233,84.1904
0.15527,84.2231
0.155303,84.256
0.155338,84.2897
0.155375,84.3237
0.155415,84.3578
0.155448,84.3923
0.155484,84.4269
0.155519,84.4618
0.155553,84.4972
0.155587,84.5331
0.155622,84.5693
0.155654,84.6061
0.155687,84.6432
0.155722,84.6808
0.155756,84.7194
0.155792,84.7585
0.155825,84.7983
0.155858,84.8388
0.155888,84.8801
0.155921,84.9218
0.155956,84.964
0.155987,85.0065
0.15602,85.0495
0.156053,85.0925
0.156082,85.1359
0.156114,85.1796
0.156145,85.2236
0.156179,85.2678
0.156209,85.3119
0.156239,85.3564
0.156271,85.4011
0.156304,85.446
0.156335,85.4911
0.156369,85.5368
0.156398,85.5827
0.15643,85.6288
0.156462,85.6752
0.156496,85.7221
0.156533,85.7687
0.156567,85.8158
0.1566,85.863
0.156632,85.9106
0.156664,85.9582
0.156696,86.006
0.156731,86.0539
0.156768,86.1017
0.156805,86.1498
0.156842,86.1979
0.156881,86.2465
0.15692,86.2951
0.156961,86.3439
0.157003,86.3925
0.157048,86.4411
0.157087,86.4894
0.15713,86.5375
0.157174,86.5849
0.157219,86.632
0.157262,86.6786
0.15731,86.7243
0.157359,86.7692
0.157408,86.8134
0.157462,86.8559
0.157519,86.8969
0.157581,86.9357
0.157651,86.9721
0.15773,87.0055
0.157814,87.0353
0.157905,87.0617
0.158002,87.0846
0.158104,87.1045
0.158213,87.122
0.158323,87.1377
0.158434,87.1527
0.15855,87.1672
0.158662,87.1818
0.158775,87.1972
0.158886,87.2138
0.158991,87.2321
0.159095,87.252
0.159196,87.2734
0.159294,87.2961
0.159385,87.3196
0.159474,87.344
0.159561,87.3692
0.159646,87.3953
0.159727,87.4223
0.159809,87.4502
0.159886,87.4792
0.159961,87.509
0.160036,87.5398
0.160107,87.5716
0.160178,87.6045
0.160248,87.6382
0.160313,87.6727
0.160383,87.7078
0.160446,87.7435
0.16051,87.7796
0.160571,87.816
0.160632,87.8528
0.160691,87.8902
0.16075,87.9278
0.160811,87.9659
0.16087,88.0042
0.160932,88.0433
0.160989,88.0831
0.161048,88.1236
0.161106,88.1646
0.161165,88.2061
0.161223,88.2481
0.161284,88.2903
0.161341,88.3331
0.161397,88.376
0.16145,88.4195
0.161505,88.4629
0.161557,88.5064
0.161615,88.5501
0.161669,88.5943
0.161723,88.6387
0.161775,88.6834
0.16183,88.7286
0.161884,88.7737
0.161941,88.8191
0.161996,88.8646
0.16205,88.9102
0.162104,88.9556
0.162158,89.001
0.162212,89.0467
0.162266,89.0919
0.162324,89.137
0.162382,89.1822
0.162439,89.2271
0.162494,89.2723
0.162558,89.3172
0.162619,89.3621
0.16268,89.4073
0.162741,89.4522
0.162805,89.4969
0.16287,89.5413
0.162933,89.5855
0.162993,89.6294
0.163059,89.6734
0.163122,89.7171
0.163182,89.761
0.163246,89.8047
0.163312,89.8487
0.163378,89.8924
0.163441,89.9363
0.16351,89.9805
0.163575,90.025
0.16364,90.0694
0.163702,90.1138
0.163766,90.1585
0.163831,90.2029
0.163896,90.2476
0.163957,90.2923
0.164021,90.337
0.164088,90.3819
0.164155,90.4266
0.164226,90.4715
0.164296,90.5159
0.164368,90.5599
0.16444,90.6033
0.164515,90.6463
0.164587,90.6883
0.164662,90.7293
0.164739,90.7693
0.164819,90.8079
0.164906,90.8448
0.164993,90.8794
0.165087,90.9117
0.165191,90.9398
0.165305,90.962
0.165442,90.9759
0.165593,90.9799
0.165771,90.9733
0.165965,90.9564
0.166179,90.9302
0.166408,90.8957
0.166658,90.8523
0.166923,90.8008
0.167199,90.7436
0.167476,90.6851
0.167747,90.6294
0.168002,90.5788
0.168244,90.5349
0.168467,90.4978
0.168679,90.4668
0.168866,90.4421
0.169042,90.4248
0.169196,90.415
0.169336,90.4117
0.169465,90.4128
0.169587,90.4171
0.169705,90.4236
0.169819,90.4318
0.169927,90.4413
0.170036,90.4514
0.170145,90.4619
0.170252,90.4724
0.170362,90.4824
0.17047,90.4918
0.17058,90.5008
0.170691,90.5089
0.170803,90.5162
0.170915,90.5228
0.171027,90.5289
0.17114,90.5347
0.171253,90.5406
0.171368,90.5466
0.171484,90.5526
0.171593,90.5586
0.17171,90.564
0.171825,90.5691
0.17194,90.5737
0.172059,90.5779
0.172176,90.5816
0.172297,90.5852
0.172412,90.5884
0.172527,90.5919
0.172638,90.5959
0.172746,90.601
0.172852,90.6075
0.172955,90.6156
0.17305,90.6257
0.17314,90.6382
0.173226,90.653
0.173307,90.67
0.17338,90.6894
0.173452,90.711
0.173518,90.735
0.173581,90.761
0.173642,90.7888
0.173697,90.8183
0.173749,90.8495
0.173801,90.8817
0.173848,90.9154
0.173892,90.95
0.173935,90.9857
0.173979,91.0221
0.174018,91.0592
0.174056,91.097
0.174095,91.1356
0.174136,91.1749
0.174172,91.2149
0.17421,91.2555
0.174247,91.2967
0.174282,91.3385
0.17432,91.3807
0.17436,91.4234
0.174396,91.4662
0.174432,91.5094
0.17447,91.5526
0.174506,91.5958
0.174541,91.639
0.174579,91.6825
0.174614,91.7257
0.174649,91.7694
0.174689,91.8131
0.174724,91.8568
0.17476,91.901
0.174796,91.9452
0.174837,91.9901
0.174875,92.035
0.174911,92.0807
0.174947,92.1266
0.174985,92.1727
0.17502,92.2191
0.175056,92.266
0.175092,92.3131
0.175125,92.3607
0.175156,92.4088
0.175193,92.4569
0.175229,92.5055
0.175264,92.5548
0.1753,92.6043
0.175335,92.6549
0.175369,92.7059
0.175405,92.7574
0.175439,92.8097
0.175473,92.8622
0.175506,92.9149
0.175541,92.9684
0.175574,93.0221
0.175605,93.0763
0.175635,93.1305
0.175671,93.1847
0.175703,93.2393
0.175734,93.2945
0.175765,93.3499
0.175797,93.4059
0.175832,93.462
0.175866,93.5186
0.175899,93.5755
0.175931,93.6329
0.175963,93.6905
0.175991,93.7486
0.176021,93.8072
0.176054,93.8658
0.176085,93.9251
0.176116,93.9847
0.176148,94.045
0.176176,94.1058
0.176209,94.1673
0.17624,94.2296
0.176272,94.2921
0.176304,94.3556
0.176335,94.419
0.176364,94.4835
0.176393,94.5484
0.176421,94.6134
0.176445,94.6793
0.176474,94.7452
0.1765,94.8111
0.17653,94.878
0.176557,94.9449
0.176583,95.0123
0.176608,95.0802
0.176636,95.1485
0.176666,95.2169
0.176692,95.2852
0.176715,95.3546
0.176739,95.4239
0.176763,95.4942
0.176788,95.5645
0.176812,95.6358
0.176838,95.7076
0.176866,95.7799
0.176892,95.8526
0.17692,95.9264
0.176947,96.0001
0.176974,96.0743
0.177,96.149
0.177025,96.2237
0.17705,96.2989
0.177074,96.3741
0.177101,96.4498
0.177127,96.5255
0.17715,96.6016
0.177177,96.6778
0.177204,96.755
0.177233,96.8316
0.177262,96.9092
0.177286,96.9874
0.17731,97.0655
0.177336,97.1441
0.177364,97.2237
0.17739,97.3033
0.177422,97.3839
0.177446,97.4644
0.177479,97.546
0.17751,97.6275
0.177544,97.7091
0.177575,97.7911
0.177603,97.8731
0.177634,97.9551
0.177664,98.0372
0.177695,98.1192
0.177726,98.2008
0.177761,98.2823
0.177796,98.3638
0.177838,98.4449
0.177874,98.5255
0.177912,98.6065
0.177949,98.6871
0.177988,98.7676
0.178031,98.8482
0.178075,98.9283
0.178122,99.0079
0.178173,99.087
0.178225,99.1656
0.17828,99.2427
0.17834,99.3179
0.178401,99.3907
0.178458,99.46
0.178511,99.5264
0.178556,99.5887
0.178601,99.6468
0.178647,99.7005
0.178689,99.7503
0.178738,99.7957
0.178786,99.837
0.178832,99.8751
0.178876,99.9097
0.178918,99.9415
0.178963,99.9703
0.179008,99.9963
0.17905,100.02
0.179093,100.041
0.179136,100.06
0.179176,100.077
0.179217,100.092
0.179256,100.105
0.179295,100.118
0.179336,100.128
0.179371,100.138
0.179405,100.147
0.179441,100.155
0.179473,100.162
0.179507,100.168
0.179539,100.174
0.17957,100.178
0.179602,100.183
0.17963,100.186
0.179658,100.189
0.179685,100.192
0.179713,100.194
0.179736,100.195
0.179762,100.197
0.179784,100.197
0.179809,100.198
0.179832,100.198
0.179853,100.198
0.179875,100.197
0.179897,100.196
0.179916,100.195
0.179937,100.194
0.179957,100.192
0.179973,100.19
0.179991,100.188
0.18001,100.186
0.180027,100.184
