"Maximum force",100.376,"N"
"Gage length ",0.979598,"mm"
"Strain energy",10.7449,"mJ"
"Deformation at maximum force",0.161846,"mm"
"Standard travel","Standard force"
"mm","N"
0,0.301701
2.71201e-006,0.303166
2.37115e-006,0.304715
2.35019e-006,0.306096
5.30062e-006,0.307454
5.59678e-006,0.30869
6.08852e-006,0.309834
6.50017e-006,0.311017
7.07386e-006,0.312123
7.5656e-006,0.313268
8.19145e-006,0.314351
6.04568e-006,0.315366
6.76839e-006,0.316403
7.80402e-006,0.317288
8.79494e-006,0.318196
7.05151e-006,0.319028
8.1989e-006,0.319856
9.4953e-006,0.320619
8.03499e-006,0.321313
6.52997e-006,0.322026
8.07224e-006,0.322671
6.61192e-006,0.323365
5.51669e-006,0.323884
6.9472e-006,0.324582
8.52672e-006,0.325208
7.26758e-006,0.32581
5.82961e-006,0.326493
7.43894e-006,0.327104
6.06803e-006,0.327752
4.91319e-006,0.328301
6.60447e-006,0.328874
5.6061e-006,0.329352
4.51831e-006,0.329867
6.66408e-006,0.330222
5.98235e-006,0.330552
5.17024e-006,0.330935
4.62634e-006,0.331195
3.98187e-006,0.3315
3.46778e-006,0.331743
2.87173e-006,0.332024
2.34274e-006,0.332275
1.81375e-006,0.332525
1.23633e-006,0.3328
3.51621e-006,0.33309
2.7041e-006,0.333481
1.89571e-006,0.333866
1.05007e-006,0.334265
2.75206e-007,0.334633
-4.69852e-007,0.334986
-1.14786e-006,0.335306
-1.69175e-006,0.335565
-2.26917e-006,0.33584
-2.68454e-006,0.336036
-2.55648e-007,0.336255
-6.05825e-007,0.336428
-6.3912e-007,0.336444
-8.70088e-007,0.336553
-1.03586e-006,0.336632
-1.33202e-006,0.336773
-1.54809e-006,0.336874
-1.94483e-006,0.337062
-2.30805e-006,0.337235
-2.67127e-006,0.337407
-3.18163e-006,0.33765
-3.597e-006,0.337845
-4.30853e-006,0.338183
-4.68851e-006,0.338363
-5.18397e-006,0.338598
-5.56395e-006,0.338778
-6.01099e-006,0.33899
-6.50645e-006,0.339224
-6.88643e-006,0.339404
-7.46385e-006,0.339679
-7.68085e-006,0.339781
-7.82986e-006,0.339851
-7.79727e-006,0.339836
-5.10016e-006,0.33993
-5.23706e-006,0.34
-5.33671e-006,0.340048
-5.56768e-006,0.340157
-5.68409e-006,0.340212
-6.06407e-006,0.340391
-6.27921e-006,0.340494
-6.49341e-006,0.340596
-6.90692e-006,0.340791
-7.36886e-006,0.341011
-7.81589e-006,0.341222
-8.17911e-006,0.341394
-8.59261e-006,0.341591
-8.87387e-006,0.341724
-8.99029e-006,0.341779
-8.82545e-006,0.341701
-8.74256e-006,0.341662
-8.82498e-006,0.341701
-8.80868e-006,0.341693
-8.85804e-006,0.341716
-8.87469e-006,0.341724
-8.80903e-006,0.341693
-8.77574e-006,0.341677
-8.8251e-006,0.341701
-9.05606e-006,0.34181
-9.41928e-006,0.341982
-9.91474e-006,0.342217
-1.03283e-005,0.342413
-1.07418e-005,0.342609
-1.10733e-005,0.342766
-1.13695e-005,0.342907
-1.15692e-005,0.343001
-8.63372e-006,0.342985
-8.71195e-006,0.343025
-8.7124e-006,0.343025
-8.7124e-006,0.343025
-8.46467e-006,0.342907
-8.24954e-006,0.342805
-8.11729e-006,0.342743
-7.80436e-006,0.342594
-7.72054e-006,0.342555
-7.88539e-006,0.342633
-8.39575e-006,0.342875
-8.9918e-006,0.343157
-9.6698e-006,0.343478
-7.73265e-006,0.343932
-5.89236e-006,0.344439
-1.39221e-006,0.345053
3.16755e-006,0.345656
7.36968e-006,0.346415
1.43136e-005,0.347262
2.40292e-005,0.348147
3.36255e-005,0.349101
4.62617e-005,0.350005
5.58581e-005,0.350966
7.11168e-005,0.351996
8.6316e-005,0.353079
0.000101277,0.354231
0.000115999,0.355528
0.000133046,0.357092
0.000149974,0.358718
0.000166067,0.360701
0.000184544,0.362975
0.000199207,0.365691
0.000216016,0.368743
0.00023199,0.372176
0.000249871,0.376082
0.00026668,0.380507
0.000282296,0.385481
0.000296959,0.390975
0.000310191,0.397109
0.000325152,0.403792
0.00034196,0.410933
0.000354656,0.418715
0.00036908,0.427016
0.000385055,0.435988
0.000396916,0.44551
0.000410386,0.455641
0.000422784,0.466323
0.000437209,0.47737
0.000450739,0.488906
0.000463435,0.500746
0.000478038,0.513137
0.000491926,0.525832
0.00050486,0.539015
0.000519999,0.552443
0.000534424,0.566298
0.000548133,0.580458
0.000561305,0.594863
0.000576683,0.609633
0.000591406,0.624709
0.000608214,0.640151
0.000624188,0.655898
0.000639566,0.672011
0.000654169,0.688613
0.00067074,0.705458
0.000686475,0.722792
0.000704118,0.740615
0.000717648,0.759047
0.000735887,0.777968
0.000750252,0.797255
0.000766703,0.817031
0.000779399,0.837172
0.000796923,0.857802
0.000816592,0.878798
0.000832685,0.900038
0.000851044,0.921767
0.000868806,0.943617
0.00088329,0.965712
0.000900217,0.987929
0.00091941,1.01051
0.000935384,1.03322
0.000950583,1.05641
0.000968107,1.07973
0.000985035,1.10341
0.00100387,1.12746
0.00101925,1.15187
0.00103641,1.17677
0.00105596,1.20204
0.00107456,1.22755
0.00109244,1.25355
0.00110937,1.28004
0.00112821,1.3069
0.00114644,1.33412
0.00116361,1.36171
0.0011803,1.38966
0.00119902,1.41798
0.00122,1.44655
0.00123716,1.4756
0.00125361,1.50502
0.00127519,1.5348
0.00129259,1.56508
0.00131262,1.59547
0.00132895,1.62636
0.00135053,1.65748
0.00137115,1.68898
0.0013913,1.72072
0.00141037,1.75294
0.00142873,1.78566
0.00144637,1.81862
0.00146628,1.85182
0.00148559,1.88527
0.00150419,1.9192
0.0015247,1.95363
0.00154186,1.9883
0.00156415,2.02296
0.00158585,2.05812
0.00160385,2.09376
0.00162686,2.12965
0.00164891,2.16603
0.00166989,2.20289
0.00169004,2.24025
0.00171448,2.27833
0.00173498,2.31666
0.00175703,2.35597
0.00177813,2.39552
0.00180114,2.43556
0.00182045,2.47609
0.00184203,2.51662
0.00186301,2.55763
0.00188089,2.59889
0.00190378,2.64039
0.00192369,2.6819
0.001943,2.72365
0.00196494,2.76564
0.00198627,2.80788
0.00200678,2.8506
0.00202967,2.89332
0.00205136,2.93678
0.00207199,2.98073
0.00209118,3.0254
0.0021124,3.07033
0.00213552,3.11598
0.00215805,3.16163
0.00217975,3.20802
0.00220061,3.25441
0.00222374,3.30128
0.00224305,3.34865
0.00226165,3.39625
0.00228537,3.44435
0.00230814,3.49269
0.00232745,3.54152
0.00235129,3.59083
0.00237096,3.64064
0.00239492,3.69142
0.00241769,3.74245
0.00243939,3.7942
0.00246299,3.84645
0.00248898,3.8987
0.00251127,3.95167
0.00253595,4.00465
0.00255979,4.05812
0.00258029,4.11183
0.00260342,4.16554
0.00262333,4.2195
0.00264562,4.2737
0.00266708,4.32814
0.00268794,4.38307
0.00271083,4.43825
0.00273312,4.49391
0.00276042,4.54982
0.00278402,4.60597
0.00280703,4.66261
0.00283481,4.71974
0.00285948,4.77687
0.0028832,4.83449
0.00290931,4.89235
0.00293184,4.9507
0.00295652,5.00929
0.00297762,5.06813
0.00300361,5.12746
0.00303162,5.18703
0.00305546,5.24733
0.00308383,5.30836
0.00310803,5.36989
0.00313712,5.4319
0.00316573,5.49415
0.00319363,5.55665
0.00322128,5.61915
0.00324536,5.68214
0.0032692,5.74513
0.00329269,5.80861
0.00331593,5.8716
0.00334204,5.93507
0.00336505,5.99855
0.0033902,6.06251
0.00341762,6.12648
0.00344134,6.19093
0.00346733,6.25587
0.00349236,6.3213
0.00351692,6.38673
0.00354327,6.45265
0.00356627,6.51906
0.00358821,6.58595
0.00361217,6.65285
0.0036353,6.72023
0.00365735,6.78859
0.00368119,6.85695
0.00370956,6.92628
0.00373448,6.99562
0.00375868,7.06544
0.0037824,7.13576
0.00380851,7.20607
0.00383438,7.27638
0.00385416,7.34669
0.00387669,7.41749
0.00390209,7.48781
0.00392104,7.55861
0.0039456,7.6299
0.00396944,7.70119
0.00399269,7.77296
0.0040182,7.84474
0.00404609,7.91701
0.00407065,7.98927
0.00409425,8.06203
0.00411714,8.13527
0.00414194,8.209
0.00416327,8.28273
0.00418652,8.35744
0.00421453,8.43214
0.00423838,8.50783
0.00426114,8.58351
0.00428868,8.66017
0.00431527,8.73683
0.0043409,8.81447
0.00436593,8.8921
0.00439037,8.97023
0.00441397,9.04835
0.00443698,9.12697
0.00445963,9.20558
0.00448168,9.28468
0.00450922,9.36427
0.0045333,9.44337
0.00455976,9.52345
0.00458575,9.60304
0.004614,9.68361
0.00463892,9.76417
0.00466324,9.84474
0.00468708,9.9258
0.00471319,10.0069
0.00474144,10.0889
0.00476886,10.1709
0.00479842,10.2529
0.00482751,10.336
0.00485874,10.419
0.00488699,10.502
0.00491727,10.5855
0.00494374,10.669
0.00496949,10.7534
0.00499738,10.8379
0.00502456,10.9229
0.00505377,11.0083
0.0050794,11.0938
0.00510991,11.1802
0.00513674,11.2666
0.00516535,11.3535
0.00519002,11.4409
0.00521363,11.5288
0.00523604,11.6172
0.00525726,11.7066
0.00528623,11.7959
0.00531126,11.8862
0.0053413,11.9766
0.00537027,12.0674
0.00539518,12.1592
0.00541879,12.251
0.00544167,12.3438
0.00546385,12.4365
0.00548828,12.5293
0.00551225,12.6231
0.00553585,12.7163
0.0055647,12.8101
0.00559259,12.9043
0.00561667,12.999
0.00564254,13.0943
0.00566436,13.19
0.00569046,13.2861
0.0057149,13.3838
0.00574423,13.481
0.00577212,13.5796
0.00580431,13.6787
0.00583232,13.7783
0.00586165,13.8789
0.00588358,13.98
0.00590731,14.0816
0.00593043,14.1836
0.0059532,14.2857
0.00598169,14.3882
0.00600601,14.4907
0.00603248,14.5938
0.00605548,14.6973
0.00607718,14.8013
0.00610078,14.9058
0.00612319,15.0108
0.00615061,15.1162
0.00617672,15.2227
0.00620497,15.3291
0.00623573,15.4356
0.00626338,15.5425
0.00628806,15.6489
0.0063125,15.7559
0.00633431,15.8628
0.00635923,15.9693
0.00638498,16.0757
0.00641371,16.1817
0.00644494,16.2881
0.00647319,16.3945
0.00649417,16.502
0.0065198,16.6094
0.00654412,16.7178
0.00657059,16.8267
0.00659669,16.9356
0.00662495,17.0444
0.00665272,17.1538
0.00667668,17.2637
0.00669742,17.374
0.00671733,17.4844
0.00673688,17.5947
0.00675941,17.7051
0.00678504,17.8159
0.00681115,17.9263
0.00684036,18.0371
0.00686885,18.1485
0.00689329,18.2598
0.00691975,18.3721
0.00694872,18.4844
0.00697709,18.5972
0.00701095,18.71
0.00704409,18.8233
0.00707651,18.9365
0.00710488,19.0503
0.00713492,19.1651
0.00716115,19.2803
0.00719024,19.3955
0.00721897,19.5108
0.0072533,19.626
0.00728453,19.7412
0.00731207,19.8569
0.00733853,19.9736
0.00736678,20.0903
0.0073973,20.2075
0.00743092,20.3247
0.00746668,20.4419
0.00750221,20.5596
0.00753678,20.6777
0.00756515,20.7959
0.00759567,20.9146
0.00762952,21.0332
0.00766338,21.1514
0.00769723,21.27
0.00773109,21.3882
0.00776351,21.5073
0.00779189,21.627
0.00782169,21.7476
0.00785316,21.8682
0.00788654,21.9898
0.00792421,22.1118
0.00795759,22.2349
0.00799263,22.3584
0.00802339,22.4824
0.00805283,22.6069
0.00808156,22.7319
0.00811005,22.8569
0.00814367,22.9829
0.00817395,23.1079
0.0082059,23.2349
0.0082332,23.3618
0.00826181,23.4898
0.00829173,23.6187
0.00832344,23.7476
0.00835992,23.8775
0.0083952,24.0083
0.0084262,24.1392
0.0084591,24.27
0.00849081,24.4028
0.0085193,24.5347
0.00855316,24.6675
0.00858653,24.8003
0.00861872,24.9331
0.00864972,25.0669
0.00867976,25.2007
0.0087148,25.3355
0.00875247,25.4702
0.00879014,25.605
0.00883067,25.7407
0.00886501,25.8755
0.00889624,26.0103
0.00892521,26.145
0.00895739,26.2798
0.00899006,26.4146
0.0090263,26.5484
0.00905944,26.6821
0.00908841,26.8169
0.00911964,26.9527
0.00915349,27.0874
0.00919069,27.2222
0.00922812,27.3579
0.00926531,27.4927
0.00929583,27.6284
0.00932623,27.7632
0.00935603,27.8989
0.00938893,28.0347
0.00942183,28.1704
0.0094545,28.3062
0.00948573,28.4429
0.00951267,28.5806
0.0095408,28.7183
0.00957096,28.8569
0.00960697,28.9956
0.00964225,29.1343
0.00967396,29.273
0.00970472,29.4126
0.00973524,29.5523
0.00976599,29.6919
0.00980032,29.8306
0.00983442,29.9702
0.00986803,30.1099
0.0099007,30.2495
0.00993193,30.3902
0.00996817,30.5318
0.0100039,30.6734
0.0100445,30.815
0.0100814,30.9575
0.0101172,31.1001
0.0101491,31.2427
0.0101827,31.3862
0.0102133,31.5308
0.0102464,31.6743
0.0102786,31.8189
0.0103065,31.9644
0.0103389,32.1099
0.0103678,32.2564
0.0104052,32.4019
0.0104443,32.5493
0.0104762,32.6968
0.010507,32.8443
0.0105366,32.9927
0.0105678,33.1421
0.0105985,33.2915
0.0106307,33.4419
0.0106613,33.5923
0.010687,33.7446
0.0107192,33.897
0.0107497,34.0503
0.0107881,34.2046
0.0108255,34.3599
0.0108554,34.5152
0.0108869,34.6714
0.0109177,34.8277
0.0109487,34.9839
0.0109825,35.1402
0.0110152,35.2964
0.0110471,35.4536
0.0110819,35.6109
0.0111199,35.7681
0.0111611,35.9253
0.011205,36.0825
0.0112436,36.2388
0.0112794,36.396
0.011312,36.5532
0.011348,36.7095
0.0113876,36.8657
0.0114219,37.022
0.0114553,37.1782
0.0114875,37.3355
0.0115254,37.4927
0.0115604,37.6499
0.0116012,37.8071
0.0116327,37.9644
0.011667,38.1216
0.0116956,38.2788
0.0117276,38.4361
0.0117593,38.5943
0.0117908,38.7515
0.0118184,38.9087
0.0118481,39.0679
0.0118798,39.2261
0.0119163,39.3853
0.0119547,39.5454
0.0119892,39.7056
0.0120195,39.8657
0.0120488,40.0278
0.0120832,40.189
0.0121147,40.3511
0.0121459,40.5122
0.0121764,40.6743
0.0122069,40.8364
0.0122434,40.9986
0.0122832,41.1607
0.0123233,41.3228
0.0123633,41.4839
0.0123977,41.646
0.012435,41.808
0.0124744,41.9691
0.012513,42.1322
0.0125478,42.2943
0.012584,42.4584
0.0126189,42.6224
0.0126575,42.7875
0.0126975,42.9535
0.0127354,43.1205
0.012766,43.2884
0.0127949,43.4574
0.012829,43.6253
0.0128619,43.7953
0.0128909,43.9652
0.0129243,44.1351
0.0129535,44.307
0.0129902,44.4789
0.0130343,44.6507
0.0130744,44.8236
0.0131101,44.9974
0.0131476,45.1712
0.0131838,45.3461
0.0132219,45.5218
0.0132565,45.6976
0.0132935,45.8734
0.0133304,46.0492
0.0133738,46.225
0.0134177,46.3998
0.0134656,46.5746
0.0135052,46.7494
0.0135428,46.9232
0.0135843,47.097
0.0136268,47.2699
0.0136671,47.4427
0.0137081,47.6156
0.013746,47.7884
0.0137865,47.9613
0.0138325,48.1341
0.0138785,48.307
0.0139181,48.4798
0.0139515,48.6537
0.0139901,48.8265
0.0140259,49.0003
0.0140616,49.1742
0.0140972,49.348
0.0141325,49.5218
0.0141713,49.6957
0.0142154,49.8695
0.0142567,50.0433
0.0142979,50.2171
0.0143392,50.39
0.0143799,50.5648
0.0144255,50.7386
0.0144648,50.9134
0.0145039,51.0882
0.0145454,51.264
0.0145921,51.4388
0.0146415,51.6146
0.0146844,51.7904
0.0147271,51.9662
0.0147693,52.1419
0.0148136,52.3187
0.0148546,52.4955
0.0148918,52.6722
0.0149312,52.85
0.0149693,53.0277
0.0150148,53.2064
0.0150618,53.3861
0.0151066,53.5668
0.0151441,53.7484
0.0151827,53.93
0.0152225,54.1127
0.0152609,54.2962
0.0152976,54.4808
0.015336,54.6664
0.0153761,54.8519
0.0154202,55.0375
0.0154669,55.225
0.0155103,55.4115
0.0155501,55.598
0.0155949,55.7855
0.0156414,55.974
0.0156819,56.1625
0.0157287,56.35
0.0157792,56.5375
0.0158331,56.725
0.0158875,56.9125
0.0159366,57.099
0.0159831,57.2855
0.0160296,57.472
0.0160758,57.6595
0.0161166,57.8461
0.0161588,58.0316
0.0162048,58.2171
0.0162539,58.4027
0.0163059,58.5882
0.0163495,58.7738
0.0163934,58.9584
0.0164342,59.1439
0.0164778,59.3294
0.0165217,59.514
0.0165598,59.6996
0.0166032,59.8851
0.0166516,60.0707
0.0167021,60.2562
0.0167467,60.4427
0.0167913,60.6293
0.0168364,60.8148
0.0168809,61.0013
0.0169315,61.1869
0.0169773,61.3724
0.0170235,61.558
0.0170788,61.7435
0.0171365,61.9291
0.0171918,62.1146
0.0172436,62.3002
0.0172977,62.4857
0.0173504,62.6722
0.0173986,62.8597
0.017446,63.0472
0.0174925,63.2347
0.0175442,63.4232
0.0176007,63.6127
0.0176537,63.8011
0.017703,63.9906
0.0177483,64.181
0.0177946,64.3724
0.0178454,64.5638
0.0178926,64.7562
0.0179443,64.9486
0.0179979,65.141
0.018059,65.3353
0.0181169,65.5287
0.0181706,65.723
0.0182263,65.9183
0.0182774,66.1136
0.0183281,66.3099
0.0183858,66.5052
0.0184419,66.6996
0.0185072,66.8939
0.0185759,67.0882
0.0186338,67.2826
0.0186889,67.4759
0.018744,67.6703
0.0188016,67.8636
0.0188517,68.057
0.0189089,68.2494
0.0189631,68.4427
0.0190255,68.6361
0.019082,68.8285
0.0191361,69.0218
0.0191848,69.2142
0.0192334,69.4066
0.0192823,69.599
0.0193324,69.7914
0.0193803,69.9828
0.0194342,70.1742
0.019494,70.3656
0.0195546,70.557
0.0196099,70.7484
0.0196688,70.9388
0.0197274,71.1292
0.0197899,71.3197
0.0198485,71.5091
0.0200917,71.6102
0.0241811,69.8602
0.0285451,67.9696
0.0329091,66.079
0.0373036,64.1805
0.0416982,62.2743
0.0461537,60.3446
0.0505788,58.4071
0.0549428,56.4461
0.0591847,54.4618
0.0631825,52.5477
0.0632903,52.4725
0.063131,52.5126
0.063009,52.5337
0.0629131,52.5405
0.062833,52.54
0.0627567,52.5361
0.0626857,52.5313
0.0626123,52.526
0.0625422,52.5205
0.0624692,52.5151
0.062402,52.5097
0.0623338,52.5046
0.0622661,52.4996
0.0622003,52.4947
0.0621378,52.4897
0.0620758,52.4847
0.0620143,52.4794
0.0619552,52.4741
0.0618963,52.4688
0.0618403,52.4637
0.0617866,52.4587
0.0617325,52.4539
0.0616781,52.4492
0.0616293,52.4448
0.061583,52.4405
0.0615329,52.4366
0.0614881,52.433
0.061445,52.4299
0.0614011,52.4273
0.0613622,52.425
0.0613224,52.4232
0.0612824,52.4215
0.0612416,52.42
0.0612063,52.4188
0.0611705,52.4178
0.0611374,52.417
0.0611038,52.4164
0.061073,52.4159
0.0610416,52.4156
0.0610132,52.4152
0.0609879,52.4148
0.0609628,52.4143
0.0609376,52.4138
0.0609184,52.4133
0.0608958,52.413
0.0608759,52.4128
0.0608559,52.4126
0.0608389,52.4124
0.0608222,52.412
0.0608086,52.4116
0.060795,52.4111
0.0607841,52.4108
0.0607732,52.4104
0.0607619,52.4103
0.0607504,52.4102
0.060742,52.41
0.0607364,52.41
0.0607283,52.4097
0.0607259,52.4094
0.0607235,52.4092
0.0607181,52.4089
0.0607153,52.4089
0.0607153,52.4089
0.0607152,52.4089
0.0607157,52.4087
0.0607163,52.4084
0.0607171,52.408
0.0607178,52.4077
0.0607183,52.4074
0.0607187,52.4072
0.0607218,52.4072
0.0607277,52.4071
0.060731,52.4069
0.0607372,52.4067
0.0607435,52.4065
0.0607556,52.4063
0.0607645,52.4062
0.0607762,52.4061
0.0607847,52.4062
0.0607989,52.4064
0.0608133,52.4065
0.0608308,52.4064
0.0608482,52.4064
0.0608659,52.4063
0.0608835,52.4062
0.0609037,52.4063
0.060924,52.4063
0.0609439,52.4065
0.0609668,52.4067
0.0609898,52.4068
0.0610131,52.4068
0.0610389,52.4069
0.0610648,52.4071
0.0610902,52.4075
0.0611181,52.408
0.0611454,52.4089
0.0611724,52.4099
0.061202,52.411
0.0612285,52.4123
0.0612599,52.4139
0.0612883,52.4157
0.0613157,52.4179
0.0613453,52.4204
0.0613712,52.4233
0.0613995,52.4265
0.0614277,52.4298
0.0614582,52.4332
0.0614889,52.4367
0.0615162,52.4403
0.0615489,52.4441
0.0615785,52.4482
0.0616133,52.4524
0.0616452,52.4566
0.0616772,52.4608
0.0617122,52.465
0.0617442,52.4691
0.0617795,52.4732
0.0618176,52.4773
0.0618524,52.4815
0.0618898,52.4859
0.0619242,52.4904
0.0619642,52.4949
0.0620014,52.4993
0.0620446,52.5037
0.062082,52.5082
0.0621218,52.5128
0.062164,52.5176
0.0622031,52.5227
0.0622417,52.5278
0.0622806,52.5329
0.0623252,52.538
0.0623643,52.5431
0.0624089,52.5481
0.0624506,52.5534
0.0624916,52.5588
0.062535,52.5644
0.0625781,52.5704
0.0626208,52.5764
0.0626628,52.5828
0.0627071,52.5895
0.0627503,52.5966
0.0627925,52.6043
0.062833,52.6128
0.0628719,52.6222
0.0629107,52.6328
0.0629436,52.645
0.0629787,52.659
0.0630067,52.6749
0.0630332,52.6931
0.0630578,52.7135
0.0630778,52.736
0.0630927,52.7612
0.0631028,52.7885
0.063115,52.8177
0.0631239,52.8485
0.0631277,52.8805
0.0631322,52.9132
0.0631353,52.9469
0.0631372,52.981
0.0631381,53.0157
0.0631438,53.0509
0.0631459,53.0863
0.0631474,53.1222
0.0631539,53.1583
0.0631568,53.1947
0.0631588,53.2318
0.0631629,53.2689
0.0631657,53.307
0.0631673,53.3455
0.0631709,53.3844
0.0631734,53.4239
0.0631749,53.4639
0.0631784,53.5045
0.0631837,53.5452
0.0631878,53.5868
0.0631906,53.629
0.0631951,53.6717
0.0631983,53.7152
0.0632003,53.7591
0.0632042,53.8035
0.0632075,53.8482
0.0632127,53.8934
0.063217,53.939
0.0632201,53.9854
0.063222,54.0321
0.0632257,54.0794
0.0632283,54.1273
0.063233,54.1756
0.0632366,54.2244
0.0632393,54.2735
0.0632435,54.3236
0.0632463,54.3741
0.0632505,54.4254
0.0632528,54.4776
0.0632597,54.5304
0.0632624,54.5838
0.0632667,54.638
0.0632729,54.6925
0.0632752,54.7476
0.063282,54.8033
0.0632848,54.8595
0.0632896,54.9161
0.0632933,54.9732
0.0632966,55.0306
0.0632993,55.0882
0.0633043,55.1461
0.0633058,55.2044
0.0633119,55.2633
0.0633172,55.3223
0.063321,55.3824
0.0633237,55.4427
0.063331,55.5037
0.0633346,55.5653
0.0633405,55.627
0.0633482,55.6893
0.0633551,55.7518
0.0633609,55.8148
0.0633658,55.8783
0.0633697,55.9427
0.0633755,56.0072
0.0633804,56.0721
0.0633843,56.1375
0.06339,56.2034
0.0633971,56.2703
0.0634024,56.3382
0.0634089,56.4066
0.0634166,56.4759
0.0634231,56.5457
0.0634317,56.616
0.06344,56.6864
0.0634452,56.7567
0.063453,56.8275
0.0634602,56.8983
0.063464,56.9696
0.0634706,57.0409
0.0634738,57.1121
0.0634795,57.1839
0.0634874,57.2557
0.0634947,57.328
0.063504,57.4007
0.063512,57.474
0.0635219,57.5477
0.0635309,57.6219
0.0635361,57.6966
0.0635436,57.7718
0.0635504,57.847
0.0635568,57.9227
0.0635655,57.9984
0.0635734,58.0745
0.063583,58.1512
0.0635917,58.2284
0.0636023,58.3065
0.0636126,58.3841
0.0636225,58.4622
0.0636352,58.5404
0.0636479,58.6185
0.0636578,58.6961
0.0636715,58.7738
0.0636866,58.8509
0.0637022,58.9261
0.0641295,58.8055
0.0648085,58.5614
0.0655066,58.3094
0.0662314,58.0477
0.0669752,57.7762
0.0677344,57.495
0.0685164,57.2039
0.0692946,56.9071
0.070069,56.6004
0.0708319,56.2899
0.0711848,56.1673
0.0712897,56.1617
0.0713869,56.1582
0.0714804,56.1581
0.0715648,56.1621
0.0716377,56.1705
0.0717059,56.1824
0.0717648,56.1976
0.0718211,56.2153
0.0718728,56.2352
0.071921,56.2568
0.0719684,56.2803
0.0720097,56.3052
0.0720512,56.3315
0.0720872,56.359
0.0721241,56.3875
0.0721594,56.4168
0.0721937,56.4467
0.0722262,56.4772
0.0722572,56.5084
0.0722866,56.5407
0.0723174,56.5734
0.0723467,56.6071
0.0723745,56.6415
0.0724037,56.6764
0.0724291,56.7118
0.072456,56.7479
0.0724847,56.7845
0.0725091,56.8219
0.0725378,56.86
0.0725621,56.8988
0.0725853,56.9381
0.0726105,56.9779
0.0726351,57.0179
0.0726589,57.0585
0.0726848,57.0992
0.0727069,57.1405
0.0727282,57.1823
0.0727544,57.2242
0.072777,57.2667
0.0728017,57.3095
0.0728228,57.3527
0.0728463,57.3961
0.072872,57.4398
0.0728968,57.484
0.0729209,57.5284
0.0729468,57.5736
0.0729718,57.619
0.0729961,57.6647
0.0730233,57.7106
0.0730537,57.7562
0.0730816,57.8016
0.0731126,57.847
0.0731412,57.8922
0.0731729,57.9374
0.0732056,57.9818
0.0732406,58.0255
0.0732788,58.0672
0.0733214,58.107
0.0733715,58.1446
0.0734261,58.18
0.073485,58.2132
0.0735484,58.2445
0.0736199,58.2731
0.0736962,58.2993
0.0737778,58.3231
0.0738626,58.3453
0.073949,58.3667
0.0740334,58.3878
0.0741168,58.4092
0.0742003,58.4307
0.0742832,58.4525
0.0743643,58.475
0.0744439,58.4983
0.0745245,58.5226
0.0745994,58.5482
0.0746742,58.5753
0.0747486,58.6039
0.0748163,58.6343
0.0748802,58.6665
0.074946,58.7007
0.0750052,58.7368
0.0750576,58.7746
0.0751089,58.8144
0.0751565,58.8559
0.0751978,58.8992
0.0752364,58.9438
0.0752753,58.9895
0.0753087,59.0366
0.075343,59.0847
0.0753754,59.1335
0.075403,59.1833
0.0754373,59.2341
0.0754636,59.2859
0.0754941,59.3386
0.0755225,59.3923
0.0755526,59.4465
0.0755809,59.5017
0.0756056,59.5571
0.075629,59.6133
0.0756514,59.6697
0.0756727,59.7268
0.0756982,59.7847
0.0757221,59.8433
0.075744,59.9031
0.0757673,59.9634
0.0757915,60.0246
0.0758116,60.0864
0.0758393,60.1489
0.0758631,60.2119
0.0758855,60.2754
0.0759097,60.3393
0.0759303,60.4038
0.0759505,60.4683
0.0759734,60.5332
0.0759959,60.5981
0.0760181,60.6631
0.0760367,60.7285
0.0760568,60.7944
0.0760818,60.8613
0.0761033,60.9282
0.076127,60.9951
0.0761528,61.0625
0.0761753,61.1304
0.076197,61.1987
0.0762179,61.2671
0.0762383,61.3359
0.0762634,61.4053
0.0762851,61.4746
0.0763118,61.5444
0.0763373,61.6152
0.076362,61.686
0.0763891,61.7573
0.0764155,61.8286
0.0764445,61.9004
0.0764732,61.9722
0.0764956,62.0439
0.0765209,62.1157
0.076549,62.188
0.0765741,62.2602
0.0766024,62.332
0.0766275,62.4043
0.0766524,62.4766
0.0766794,62.5488
0.076706,62.6216
0.0767377,62.6948
0.0767634,62.7681
0.0767884,62.8418
0.0768161,62.915
0.0768434,62.9892
0.076867,63.0635
0.0768957,63.1377
0.0769231,63.2129
0.0769497,63.2886
0.0769785,63.3647
0.07701,63.4404
0.0770386,63.5166
0.0770672,63.5928
0.0770957,63.6684
0.077124,63.7451
0.077152,63.8213
0.07718,63.8974
0.0772053,63.9736
0.0772367,64.0498
0.0772656,64.1255
0.0773004,64.2017
0.0773352,64.2773
0.0773672,64.353
0.0774048,64.4287
0.0774361,64.5049
0.0774673,64.581
0.0774981,64.6577
0.0775314,64.7344
0.0775701,64.811
0.0776022,64.8882
0.0776421,64.9658
0.0776804,65.0439
0.0777179,65.1226
0.0777539,65.2021
0.077792,65.2817
0.077824,65.3618
0.0778585,65.4424
0.0778931,65.5225
0.0779241,65.603
0.0779606,65.6836
0.0779966,65.7642
0.0780328,65.8452
0.0780724,65.9258
0.0781125,66.0059
0.0781499,66.0859
0.0781847,66.166
0.0782257,66.2461
0.0782667,66.3257
0.0783115,66.4053
0.0783566,66.4844
0.078406,66.5635
0.0784565,66.6411
0.0785113,66.7187
0.0785645,66.7954
0.0786191,66.8716
0.0786756,66.9468
0.0787323,67.0205
0.0787977,67.0913
0.0788754,67.1562
0.0789789,67.2087
0.0791543,67.228
0.0793737,67.2257
0.0796121,67.2145
0.0798582,67.1983
0.0801118,67.1792
0.0803655,67.1584
0.0806211,67.1372
0.080871,67.1172
0.0811103,67.1015
0.081323,67.0973
0.0814661,67.125
0.0815652,67.174
0.0816377,67.2314
0.0817035,67.2937
0.0817629,67.3591
0.0818118,67.4265
0.0818602,67.4958
0.0819055,67.5666
0.0819515,67.6384
0.0819951,67.7116
0.0820364,67.7859
0.0820814,67.8606
0.0821215,67.9367
0.0821594,68.0139
0.082193,68.0915
0.0822283,68.1701
0.0822655,68.2492
0.0823077,68.3283
0.0823461,68.4079
0.0823833,68.4885
0.0824255,68.5691
0.0824674,68.6496
0.0825089,68.7307
0.0825473,68.8117
0.0825883,68.8933
0.0826264,68.9743
0.0826639,69.0559
0.0827039,69.1379
0.0827468,69.2195
0.08279,69.301
0.0828339,69.3825
0.0828787,69.4631
0.0829292,69.5412
0.08316,69.5326
0.0837742,69.3373
0.0844379,69.1205
0.0851437,68.8851
0.085899,68.6273
0.0866924,68.35
0.0875202,68.057
0.0883671,67.7523
0.0892139,67.4359
0.0900494,67.1097
0.0907131,66.8597
0.0910812,66.7455
0.0915543,66.5785
0.0920311,66.4046
0.0924965,66.2367
0.0929562,66.0707
0.0934139,65.9056
0.093866,65.7406
0.0943161,65.5755
0.0947586,65.4105
0.0951878,65.2474
0.0955254,65.1229
0.095719,65.0646
0.0958792,65.0211
0.0960194,64.9855
0.0961452,64.957
0.0962568,64.9341
0.0963598,64.9151
0.09646,64.8991
0.0965491,64.8856
0.0966364,64.8742
0.0967179,64.8644
0.0967999,64.8556
0.0968805,64.8476
0.0969563,64.8404
0.0970346,64.8336
0.0971118,64.8271
0.0971895,64.8204
0.0972682,64.8133
0.0973483,64.8054
0.0974346,64.7962
0.0975324,64.7785
0.0977326,64.7126
0.097972,64.6296
0.09822,64.5402
0.0984756,64.4479
0.098733,64.3537
0.0989924,64.2595
0.0992538,64.1647
0.0995112,64.0705
0.0997592,63.9777
0.0999814,63.8933
0.100101,63.8581
0.100178,63.8405
0.10024,63.83
0.100294,63.8238
0.100345,63.8203
0.100391,63.8189
0.100431,63.8192
0.100471,63.8211
0.100504,63.8245
0.100539,63.829
0.100571,63.8346
0.100601,63.8411
0.100633,63.8483
0.100659,63.8563
0.100685,63.8652
0.100711,63.875
0.100736,63.8855
0.100762,63.8969
0.100786,63.9089
0.100806,63.9218
0.100831,63.9351
0.100851,63.9492
0.100873,63.9638
0.100894,63.979
0.100916,63.9948
0.100935,64.0109
0.100956,64.0274
0.100977,64.0438
0.101002,64.0601
0.101024,64.0761
0.101052,64.0919
0.101079,64.1072
0.101117,64.1168
0.101175,64.1195
0.101243,64.1178
0.101315,64.1126
0.101395,64.1046
0.10148,64.0946
0.101568,64.083
0.101659,64.07
0.101755,64.0557
0.10185,64.0409
0.101933,64.0302
0.10201,64.0238
0.102083,64.018
0.102157,64.012
0.102234,64.0054
0.102309,63.9987
0.102384,63.9919
0.102462,63.9853
0.102536,63.979
0.102612,63.973
0.102687,63.9678
0.102755,63.9645
0.102822,63.9643
0.102877,63.9672
0.102929,63.9729
0.102977,63.9807
0.103018,63.9903
0.103059,64.0013
0.103101,64.0135
0.10314,64.0268
0.103177,64.0412
0.103213,64.0563
0.103249,64.0727
0.103285,64.09
0.103317,64.1083
0.10335,64.1276
0.103381,64.1479
0.103407,64.1689
0.103438,64.1905
0.103464,64.2129
0.103489,64.2359
0.103516,64.2596
0.103541,64.284
0.103565,64.3089
0.103587,64.3345
0.103609,64.3606
0.103632,64.3874
0.103654,64.4147
0.103675,64.4425
0.103697,64.4709
0.103716,64.4998
0.103739,64.5293
0.103758,64.5595
0.103775,64.5902
0.103795,64.6214
0.103814,64.6529
0.103835,64.6851
0.103854,64.7178
0.103875,64.751
0.103893,64.785
0.103914,64.8191
0.103933,64.8538
0.103953,64.889
0.103973,64.9241
0.10399,64.9598
0.104008,64.9959
0.104028,65.0323
0.104044,65.0696
0.104062,65.1072
0.104076,65.1453
0.104095,65.1839
0.104113,65.2229
0.10413,65.2625
0.104149,65.3023
0.104168,65.3426
0.104186,65.3831
0.104205,65.4231
0.104228,65.4622
0.104257,65.5003
0.104288,65.5371
0.104323,65.5723
0.104363,65.606
0.104407,65.6385
0.104452,65.6697
0.104501,65.6999
0.104551,65.729
0.104603,65.7572
0.104655,65.7853
0.104707,65.8134
0.104759,65.8416
0.104813,65.8702
0.104864,65.8992
0.104916,65.9285
0.104965,65.9584
0.105016,65.9887
0.105066,66.0193
0.105118,66.0503
0.105166,66.0816
0.105216,66.1136
0.105265,66.146
0.105316,66.179
0.105361,66.2122
0.105408,66.2456
0.105457,66.2793
0.105504,66.313
0.105547,66.347
0.105595,66.3811
0.10564,66.4156
0.105686,66.4507
0.105732,66.4861
0.10578,66.5223
0.105827,66.5581
0.105882,66.5921
0.105945,66.6219
0.106019,66.6468
0.106105,66.6654
0.106206,66.6784
0.106314,66.6866
0.106431,66.6905
0.106554,66.6912
0.106683,66.6896
0.106814,66.6865
0.106943,66.6844
0.107063,66.6859
0.107172,66.6919
0.107267,66.7037
0.107353,66.7212
0.107423,66.7436
0.107487,66.7701
0.107548,66.7997
0.1076,66.8317
0.107652,66.8661
0.107699,66.902
0.107744,66.9394
0.107782,66.9782
0.107822,67.0182
0.107859,67.0592
0.107895,67.1008
0.107932,67.1432
0.107968,67.1864
0.107999,67.2304
0.108034,67.2753
0.108067,67.3207
0.108102,67.3671
0.108133,67.414
0.108166,67.4613
0.108197,67.5092
0.10823,67.5578
0.108266,67.6066
0.108297,67.6559
0.108328,67.7057
0.108358,67.7558
0.108388,67.8058
0.108421,67.8559
0.108454,67.9062
0.108483,67.9567
0.108514,68.0075
0.108547,68.0588
0.108578,68.1103
0.10861,68.162
0.108645,68.2138
0.108679,68.266
0.108713,68.3183
0.108744,68.371
0.10878,68.4238
0.108812,68.477
0.108844,68.5302
0.108878,68.5839
0.108912,68.6376
0.108949,68.6916
0.108985,68.7458
0.109021,68.8002
0.109058,68.8551
0.109097,68.9106
0.109133,68.9662
0.109174,69.0224
0.109212,69.078
0.109253,69.1342
0.109292,69.1899
0.10933,69.246
0.109365,69.3022
0.109402,69.3586
0.109437,69.4147
0.109474,69.4711
0.109511,69.5273
0.109546,69.5839
0.109585,69.6405
0.109624,69.6974
0.109663,69.7546
0.109701,69.8117
0.109742,69.8693
0.109783,69.9269
0.109817,69.9845
0.109855,70.0424
0.109892,70.1003
0.109931,70.1586
0.10997,70.217
0.110008,70.276
0.110047,70.3354
0.11009,70.3949
0.110131,70.455
0.11017,70.5148
0.110211,70.5751
0.110248,70.6354
0.110289,70.696
0.110327,70.7563
0.110364,70.8168
0.110401,70.8776
0.110441,70.9384
0.110477,70.9994
0.110519,71.0607
0.11056,71.1222
0.110601,71.1835
0.11064,71.245
0.110683,71.3071
0.11072,71.3691
0.110757,71.4313
0.110796,71.4938
0.110835,71.5563
0.110876,71.6193
0.110916,71.6828
0.110958,71.7467
0.110997,71.8107
0.111043,71.8752
0.111084,71.9396
0.111129,72.004
0.111176,72.067
0.111222,72.1288
0.111278,72.1891
0.111331,72.2477
0.11139,72.3048
0.111453,72.36
0.111519,72.4134
0.111591,72.4657
0.111667,72.5165
0.111744,72.5658
0.111827,72.6144
0.111908,72.6622
0.111989,72.7101
0.112067,72.7582
0.112144,72.8065
0.112223,72.8556
0.1123,72.9051
0.112377,72.9554
0.112451,73.0062
0.112527,73.058
0.112605,73.1105
0.112677,73.1639
0.112749,73.2176
0.112821,73.2716
0.112892,73.3255
0.11296,73.3793
0.113031,73.4325
0.113105,73.485
0.113178,73.5367
0.113255,73.5878
0.113334,73.6383
0.113414,73.6881
0.113498,73.7374
0.113577,73.7862
0.113661,73.8343
0.113742,73.8819
0.113823,73.93
0.113902,73.9784
0.113984,74.0277
0.114063,74.078
0.114143,74.1293
0.114221,74.1813
0.114301,74.234
0.114375,74.2879
0.114447,74.3431
0.114514,74.3993
0.114575,74.4566
0.114637,74.5152
0.114697,74.5748
0.114755,74.6351
0.114811,74.6964
0.114868,74.7587
0.114924,74.8216
0.11498,74.8856
0.115032,74.9505
0.115081,75.0165
0.11513,75.0829
0.115177,75.1498
0.115225,75.2176
0.115272,75.286
0.115318,75.3553
0.115371,75.4256
0.115418,75.4964
0.115467,75.5682
0.115514,75.641
0.11556,75.7147
0.115604,75.7889
0.115647,75.8636
0.115685,75.9388
0.115725,76.015
0.115764,76.0917
0.115802,76.1683
0.115843,76.246
0.115883,76.3236
0.115925,76.4017
0.115963,76.4798
0.115997,76.5585
0.116034,76.638
0.116069,76.7181
0.116106,76.7982
0.116145,76.8793
0.116182,76.9608
0.116219,77.0428
0.116263,77.1254
0.116301,77.2079
0.116338,77.2909
0.116372,77.3739
0.116409,77.4574
0.11644,77.5404
0.116478,77.6239
0.116509,77.7069
0.116546,77.7899
0.11658,77.8729
0.116617,77.9564
0.116656,78.0404
0.116691,78.1244
0.116722,78.2093
0.116754,78.2943
0.116788,78.3807
0.11682,78.4671
0.116855,78.5546
0.11689,78.6415
0.116927,78.7294
0.116963,78.8168
0.116996,78.9046
0.117025,78.993
0.117054,79.0814
0.117083,79.1703
0.117114,79.2587
0.117144,79.347
0.117175,79.4359
0.117209,79.5248
0.117242,79.6136
0.117275,79.7035
0.117304,79.7933
0.117332,79.8837
0.117362,79.9745
0.117392,80.0648
0.117425,80.1561
0.117459,80.2474
0.117495,80.3397
0.117527,80.432
0.117565,80.5248
0.117596,80.618
0.11763,80.7113
0.117663,80.8046
0.117692,80.8983
0.117727,80.9925
0.117759,81.0863
0.117797,81.1805
0.117835,81.2748
0.11787,81.3685
0.117904,81.4628
0.117938,81.557
0.117972,81.6517
0.118011,81.7469
0.118048,81.8412
0.11809,81.9359
0.118132,82.0306
0.118177,82.1254
0.118216,82.2201
0.118255,82.3153
0.118297,82.41
0.118336,82.5047
0.118379,82.5995
0.118422,82.6937
0.118464,82.7884
0.118513,82.8827
0.118555,82.9774
0.118596,83.0726
0.118637,83.1683
0.118678,83.2645
0.118725,83.3617
0.11877,83.4593
0.118813,83.5575
0.118859,83.6561
0.118904,83.7552
0.118942,83.8544
0.118982,83.9545
0.11902,84.0541
0.119064,84.1537
0.119105,84.2518
0.119158,84.348
0.119216,84.4422
0.119276,84.5336
0.119343,84.6224
0.119418,84.7069
0.119505,84.787
0.119607,84.8627
0.119719,84.9335
0.119845,84.9989
0.119985,85.0589
0.120135,85.1117
0.120302,85.1559
0.120483,85.192
0.120675,85.2224
0.120877,85.2489
0.121085,85.2721
0.121299,85.2919
0.121528,85.3035
0.121782,85.3012
0.122072,85.2811
0.1224,85.2421
0.122772,85.1813
0.123159,85.1124
0.123556,85.0407
0.12395,84.9679
0.124341,84.8947
0.124723,84.8234
0.125081,84.7584
0.125404,84.7072
0.12568,84.6749
0.125904,84.6652
0.126069,84.6829
0.126203,84.7144
0.12632,84.7535
0.126428,84.797
0.126528,84.8441
0.126617,84.8934
0.126702,84.9451
0.126787,84.9986
0.126866,85.0531
0.126946,85.1082
0.127026,85.1634
0.12711,85.2169
0.127205,85.2664
0.127312,85.3089
0.127442,85.3419
0.12759,85.3631
0.127768,85.3693
0.12799,85.3549
0.128253,85.3202
0.128551,85.2682
0.128923,85.1793
0.129445,85.0192
0.130071,84.8053
0.130716,84.5836
0.131353,84.3629
0.131975,84.1471
0.13257,83.9401
0.133127,83.7487
0.133638,83.5739
0.134117,83.4118
0.134509,83.2838
0.13475,83.2247
0.134871,83.2209
0.13497,83.2292
0.135053,83.2437
0.135131,83.2621
0.1352,83.2838
0.135265,83.3082
0.135323,83.335
0.135377,83.3639
0.135427,83.3944
0.135474,83.4264
0.135519,83.4594
0.135561,83.4938
0.135602,83.5289
0.135643,83.5651
0.135683,83.6019
0.135719,83.6395
0.135755,83.6781
0.135793,83.7172
0.13583,83.7572
0.135864,83.798
0.1359,83.8395
0.135935,83.8817
0.135966,83.9242
0.135999,83.9674
0.136028,84.0111
0.136058,84.0555
0.13609,84.1005
0.136118,84.1459
0.136148,84.1918
0.136176,84.2384
0.136204,84.2853
0.136234,84.3326
0.136265,84.3805
0.136293,84.4291
0.136323,84.4779
0.136354,84.5272
0.136382,84.5768
0.136412,84.6268
0.136439,84.6769
0.136472,84.7272
0.136504,84.7775
0.136534,84.8278
0.136564,84.8778
0.136596,84.9271
0.136633,84.9752
0.136672,85.0221
0.136714,85.0677
0.136759,85.1119
0.13681,85.1549
0.136863,85.1964
0.136921,85.236
0.136985,85.274
0.137051,85.3104
0.137118,85.3458
0.13719,85.3798
0.137261,85.4125
0.137336,85.4442
0.137412,85.4747
0.137491,85.5039
0.137573,85.5319
0.137659,85.5586
0.13775,85.5837
0.13785,85.6069
0.137949,85.6279
0.138056,85.6465
0.138169,85.6622
0.13829,85.6737
0.138441,85.6713
0.138643,85.6423
0.13895,85.5627
0.139351,85.4377
0.139791,85.2931
0.140249,85.1388
0.14072,84.9797
0.141193,84.8166
0.141668,84.6525
0.142135,84.4884
0.142568,84.3351
0.142942,84.2062
0.143211,84.1257
0.143386,84.0888
0.143516,84.0708
0.143624,84.0624
0.143719,84.06
0.143805,84.0619
0.143881,84.0675
0.143953,84.0759
0.144017,84.0868
0.144078,84.0999
0.144137,84.1149
0.144189,84.1319
0.144243,84.1505
0.144289,84.1704
0.144336,84.1915
0.144383,84.2138
0.144427,84.2371
0.14447,84.2613
0.144514,84.2864
0.144553,84.3127
0.144593,84.3398
0.14463,84.3679
0.144666,84.397
0.144702,84.4272
0.144737,84.4582
0.144769,84.4899
0.144801,84.5227
0.144831,84.5559
0.144859,84.59
0.144886,84.6247
0.144915,84.6599
0.144942,84.6957
0.144969,84.7321
0.144995,84.7687
0.145022,84.8061
0.145045,84.8439
0.14507,84.8825
0.145094,84.9218
0.145119,84.9616
0.145142,85.0021
0.145168,85.0432
0.14519,85.0844
0.145213,85.1264
0.145239,85.1686
0.145261,85.2114
0.145285,85.2546
0.145305,85.298
0.145328,85.342
0.145346,85.3864
0.14537,85.4311
0.145392,85.4765
0.145414,85.5222
0.145437,85.5683
0.145459,85.6152
0.145483,85.6628
0.145502,85.7109
0.145524,85.7597
0.145547,85.809
0.145572,85.8586
0.145593,85.9086
0.145617,85.9589
0.145639,86.0097
0.145662,86.061
0.145683,86.1123
0.145707,86.1638
0.145728,86.2158
0.145748,86.2675
0.145768,86.3195
0.145788,86.372
0.145812,86.4248
0.145833,86.4777
0.145853,86.5314
0.145874,86.5856
0.145895,86.6401
0.145919,86.6948
0.145941,86.7497
0.145963,86.8054
0.145984,86.8613
0.146004,86.9174
0.146023,86.9741
0.146042,87.0307
0.146064,87.0878
0.146085,87.1452
0.146107,87.2028
0.14613,87.2609
0.146148,87.3195
0.146171,87.3786
0.146193,87.4382
0.146215,87.4977
0.146241,87.5578
0.146262,87.6179
0.146286,87.6782
0.14631,87.7382
0.146333,87.7983
0.146357,87.8583
0.146382,87.9182
0.146407,87.9777
0.146432,88.0371
0.14646,88.0966
0.146488,88.156
0.146517,88.2153
0.146548,88.2741
0.14658,88.3332
0.146615,88.392
0.146648,88.4509
0.146681,88.5092
0.146713,88.5678
0.14675,88.6262
0.146783,88.6843
0.14682,88.7424
0.14686,88.8002
0.146899,88.8586
0.146938,88.9169
0.146983,88.9755
0.147027,89.0339
0.147072,89.0922
0.147117,89.1503
0.147167,89.208
0.147211,89.2653
0.147259,89.3217
0.147309,89.3779
0.147361,89.4326
0.147419,89.4863
0.147477,89.5383
0.14754,89.5878
0.147626,89.6276
0.147819,89.6174
0.148076,89.5742
0.148366,89.5159
0.148675,89.448
0.148999,89.3709
0.149467,89.2273
0.150088,89.0066
0.150737,88.7722
0.151393,88.531
0.152038,88.2927
0.152587,88.0984
0.153075,87.9314
0.153535,87.7752
0.153974,87.6228
0.154391,87.4763
0.154668,87.3919
0.154791,87.3813
0.154884,87.3815
0.154965,87.3871
0.155043,87.3958
0.15511,87.4072
0.155175,87.4207
0.155239,87.436
0.155297,87.4531
0.155351,87.4719
0.155401,87.4924
0.155452,87.5143
0.155499,87.5377
0.155541,87.5625
0.155583,87.5884
0.155623,87.6154
0.155662,87.6433
0.155701,87.672
0.155741,87.7017
0.155777,87.7322
0.155811,87.7633
0.155847,87.7953
0.155875,87.828
0.155908,87.8612
0.155936,87.8951
0.155966,87.9298
0.155995,87.9652
0.156022,88.0011
0.15605,88.038
0.156077,88.0758
0.156101,88.1144
0.156127,88.1537
0.156155,88.194
0.15618,88.2347
0.156202,88.2765
0.156228,88.3187
0.156249,88.3619
0.156274,88.4056
0.156296,88.4501
0.156317,88.4948
0.15634,88.5394
0.156363,88.5846
0.156386,88.6298
0.156405,88.6752
0.156429,88.7211
0.156449,88.7675
0.156469,88.8141
0.156491,88.861
0.156512,88.9083
0.156532,88.9562
0.156551,89.0045
0.156575,89.0536
0.156594,89.1034
0.156615,89.1534
0.156638,89.2042
0.156657,89.2553
0.156679,89.3063
0.1567,89.3581
0.156721,89.4101
0.15674,89.4623
0.156761,89.5153
0.156779,89.5685
0.156798,89.6225
0.156819,89.6767
0.156842,89.7316
0.156864,89.787
0.156884,89.8434
0.156905,89.9003
0.156926,89.9579
0.15695,90.0163
0.156972,90.0746
0.156995,90.1339
0.157014,90.1933
0.157036,90.2528
0.157057,90.3127
0.157075,90.373
0.157095,90.4335
0.157114,90.4945
0.157135,90.5558
0.157152,90.6178
0.157174,90.6803
0.157198,90.7428
0.157221,90.8063
0.15724,90.8698
0.157265,90.9337
0.157282,90.9982
0.157303,91.0631
0.157325,91.1281
0.157343,91.1935
0.157364,91.2589
0.157385,91.3249
0.15741,91.3913
0.157432,91.4582
0.157458,91.5255
0.157483,91.5934
0.157508,91.6613
0.157531,91.7301
0.157558,91.7985
0.157578,91.8673
0.157602,91.9362
0.157625,92.005
0.157647,92.0739
0.15767,92.1432
0.157698,92.2121
0.15772,92.2814
0.157745,92.3512
0.157769,92.4211
0.157792,92.4914
0.157815,92.5617
0.15784,92.6325
0.157865,92.7033
0.157889,92.7746
0.157912,92.8459
0.157935,92.9176
0.157963,92.9894
0.157991,93.0617
0.158018,93.1344
0.158044,93.2072
0.158073,93.2809
0.158101,93.3542
0.158128,93.4279
0.158154,93.5021
0.158181,93.5768
0.158203,93.6515
0.158225,93.7262
0.158249,93.8019
0.158273,93.8771
0.158294,93.9528
0.158323,94.029
0.158345,94.1051
0.158373,94.1813
0.1584,94.258
0.158421,94.3351
0.158448,94.4118
0.158471,94.4894
0.158493,94.567
0.158516,94.6457
0.158542,94.7243
0.158567,94.8039
0.158597,94.883
0.158626,94.963
0.158654,95.0436
0.158682,95.1242
0.158709,95.2052
0.158735,95.2868
0.158761,95.3683
0.158787,95.4499
0.158818,95.5314
0.158846,95.6134
0.158876,95.6955
0.158903,95.778
0.158933,95.8605
0.158965,95.9435
0.158993,96.0265
0.159021,96.11
0.159048,96.194
0.159077,96.278
0.159108,96.3629
0.159135,96.4479
0.159168,96.5334
0.159203,96.6188
0.159237,96.7047
0.159269,96.7902
0.159303,96.8761
0.159334,96.9626
0.159366,97.0485
0.159394,97.1339
0.159429,97.2194
0.159465,97.3048
0.1595,97.3903
0.159538,97.4757
0.159577,97.5612
0.159613,97.6461
0.159652,97.7311
0.159688,97.8166
0.159726,97.9015
0.159768,97.987
0.159812,98.0719
0.159856,98.1574
0.159904,98.2423
0.159952,98.3273
0.159997,98.4123
0.160045,98.4972
0.16009,98.5817
0.160135,98.6671
0.16018,98.7521
0.160227,98.8376
0.160275,98.9225
0.160328,99.0075
0.16038,99.0919
0.160434,99.1754
0.160487,99.2575
0.160544,99.338
0.160593,99.4162
0.160641,99.4904
0.160686,99.5617
0.160731,99.6286
0.160773,99.6911
0.160818,99.7494
0.160857,99.8034
0.160896,99.8534
0.160934,99.8996
0.160971,99.942
0.161009,99.9814
0.161045,100.017
0.161081,100.05
0.161117,100.081
0.161151,100.109
0.161185,100.135
0.161216,100.159
0.161246,100.181
0.16128,100.202
0.161311,100.22
0.16134,100.237
0.161371,100.253
0.1614,100.267
0.161428,100.28
0.161455,100.292
0.161482,100.303
0.161505,100.313
0.16153,100.322
0.161557,100.33
0.16158,100.337
0.161602,100.344
0.161625,100.349
0.161643,100.355
0.161663,100.359
0.161684,100.363
0.161703,100.366
0.161724,100.369
0.161743,100.371
0.16176,100.373
0.161777,100.374
0.161796,100.375
0.161812,100.376
0.161831,100.376
0.161846,100.376
0.161864,100.376
0.161879,100.375
0.161895,100.375
0.161906,100.374
0.161923,100.372
0.161938,100.371
0.161952,100.37
0.161965,100.368
0.16198,100.366
0.16199,100.364
0.162006,100.362
0.162017,100.359
0.162031,100.357
0.162045,100.354
0.162055,100.352
0.162067,100.349
0.162078,100.347
0.162089,100.344
0.162101,100.341
0.162113,100.338
0.162122,100.335
0.162134,100.332
0.162144,100.329
0.162156,100.326
0.162165,100.323
0.162175,100.319
0.162188,100.316
0.162195,100.313
0.162205,100.309
0.162215,100.306
0.162225,100.303
0.162234,100.299
0.162244,100.296
0.162254,100.293
0.162261,100.289
0.162271,100.286
0.162281,100.282
0.162291,100.279
0.162299,100.275
0.162308,100.272
0.162316,100.269
0.162326,100.265
0.162333,100.262
0.162343,100.258
0.16235,100.255
0.162357,100.251
0.162367,100.248
0.162374,100.244
0.162381,100.241
0.162389,100.237
0.162399,100.234
0.162406,100.231
0.162413,100.227
0.16242,100.224
0.162426,100.221
0.162436,100.217
0.162442,100.214
0.162449,100.211
0.162455,100.208
0.162462,100.205
0.162468,100.202
0.162478,100.199
0.162484,100.196
0.16249,100.193
0.162496,100.19
0.162503,100.187
0.162509,100.184
0.162515,100.181
0.162521,100.178
0.16253,100.175
0.162536,100.172
0.162542,100.169
