"Maximum force",81.9464,"N"
"Gage length ",1.15651,"mm"
"Strain energy",1.20538,"mJ"
"Deformation at maximum force",0.0476393,"mm"
"Standard travel","Standard force"
"mm","N"
0,0.264036
-4.13507e-007,0.264231
-1.05798e-006,0.264537
-1.6503e-006,0.264819
-1.98372e-006,0.264976
-2.59466e-006,0.265266
-2.94298e-006,0.26543
-3.33972e-006,0.265618
-3.65265e-006,0.265767
-3.85195e-006,0.265861
-4.13321e-006,0.265995
-4.05125e-006,0.265956
-4.06732e-006,0.265964
-4.10038e-006,0.265979
-3.78746e-006,0.265831
-3.5062e-006,0.265698
-3.10945e-006,0.26551
-3.29013e-006,0.265595
-3.17511e-006,0.265541
-3.47127e-006,0.265681
-3.58769e-006,0.265736
-3.48897e-006,0.265689
-3.30736e-006,0.265604
-3.04286e-006,0.265479
-3.42098e-006,0.265658
-3.4885e-006,0.265689
-3.90201e-006,0.265885
-3.91854e-006,0.265893
-4.2147e-006,0.266033
-4.36464e-006,0.266104
-4.26592e-006,0.266058
-4.57885e-006,0.266206
-4.61284e-006,0.266222
-4.86057e-006,0.266339
-4.86095e-006,0.26634
-5.17388e-006,0.266488
-5.30706e-006,0.266551
-5.38995e-006,0.26659
-5.43954e-006,0.266614
-5.25793e-006,0.266528
-5.40601e-006,0.266598
-5.43954e-006,0.266614
-5.52196e-006,0.266653
-5.52224e-006,0.266653
-5.50571e-006,0.266645
-5.50571e-006,0.266645
-5.3241e-006,0.266559
-5.17509e-006,0.266489
-4.94412e-006,0.266379
-4.89406e-006,0.266355
-4.67986e-006,0.266254
-4.61327e-006,0.266222
-4.82747e-006,0.266324
-5.00908e-006,0.26641
-5.20745e-006,0.266504
-5.25751e-006,0.266528
-5.50524e-006,0.266645
-5.80327e-006,0.266786
-5.77044e-006,0.266771
-6.23237e-006,0.266989
-6.48011e-006,0.267107
-6.99047e-006,0.267349
-6.82842e-006,0.267272
-6.9765e-006,0.267342
-6.73063e-006,0.267225
-6.59745e-006,0.267163
-6.43168e-006,0.267084
-6.23331e-006,0.26699
-6.46427e-006,0.267099
-6.10106e-006,0.266927
-6.05146e-006,0.266904
-5.67149e-006,0.266724
-5.53924e-006,0.266661
-5.25798e-006,0.266528
-5.17509e-006,0.266489
-5.38929e-006,0.26659
-5.53831e-006,0.266661
-5.83633e-006,0.266801
-6.08406e-006,0.266919
-6.24891e-006,0.266997
-6.49664e-006,0.267115
-6.5141e-006,0.267123
-7.00956e-006,0.267358
-7.24146e-006,0.267467
-7.86731e-006,0.267765
-8.15043e-006,0.267898
-8.3488e-006,0.267992
-8.39863e-006,0.268016
-7.97022e-006,0.267813
-7.70573e-006,0.267688
-7.09478e-006,0.267398
-6.99373e-006,0.267351
-6.68081e-006,0.267202
-6.54763e-006,0.267139
-6.26637e-006,0.267006
-5.90315e-006,0.266834
-5.85309e-006,0.26681
-5.55693e-006,0.26667
-5.8028e-006,0.266786
-5.96858e-006,0.266864
-6.70991e-006,0.267217
-7.10852e-006,0.267405
-7.37301e-006,0.26753
-7.57138e-006,0.267624
-7.58873e-006,0.267632
-7.80293e-006,0.267734
-7.67162e-006,0.267672
-7.63855e-006,0.267656
-7.53937e-006,0.267609
-7.50631e-006,0.267593
-7.39082e-006,0.267538
-7.25858e-006,0.267476
-7.25812e-006,0.267476
-6.92843e-006,0.267319
-6.82832e-006,0.267272
-6.56382e-006,0.267147
-6.53076e-006,0.267131
-6.79339e-006,0.267256
-6.92657e-006,0.267319
-7.32331e-006,0.267507
-7.14264e-006,0.267421
-7.10934e-006,0.267405
-6.99386e-006,0.26735
-6.92773e-006,0.267319
-6.77872e-006,0.267249
-6.81155e-006,0.267264
-7.04252e-006,0.267374
-6.9275e-006,0.267319
-7.01014e-006,0.267358
-6.71398e-006,0.267218
-6.54727e-006,0.267139
-6.51421e-006,0.267123
-6.36613e-006,0.267053
-6.82806e-006,0.267272
-7.0758e-006,0.267389
-7.55263e-006,0.267616
-7.67138e-006,0.267671
-7.72097e-006,0.267695
-7.57289e-006,0.267625
-7.34099e-006,0.267515
-7.47231e-006,0.267577
-7.39082e-006,0.267538
-7.48954e-006,0.267585
-7.2921e-006,0.267492
-7.10956e-006,0.267405
-6.64762e-006,0.267186
-6.05157e-006,0.266906
-6.00175e-006,0.26688
-5.93562e-006,0.266849
-6.16659e-006,0.266958
-6.134e-006,0.266943
-6.46368e-006,0.267099
-6.64622e-006,0.267186
-7.00944e-006,0.267357
-7.30746e-006,0.267498
-7.48907e-006,0.267585
-7.81876e-006,0.267742
-8.01806e-006,0.267836
-8.38128e-006,0.268008
-8.44833e-006,0.26804
-8.31702e-006,0.267977
-8.03576e-006,0.267845
-7.59058e-006,0.267633
-7.24227e-006,0.267468
-6.71328e-006,0.267218
-6.53074e-006,0.267131
-6.46462e-006,0.2671
-6.25041e-006,0.266998
-6.28254e-006,0.267013
-6.3156e-006,0.267029
-6.77754e-006,0.267248
-6.71281e-006,0.267217
-6.92702e-006,0.267319
-7.14215e-006,0.267421
-7.4886e-006,0.267585
-7.91888e-006,0.267789
-7.98547e-006,0.26782
-8.24996e-006,0.267945
-7.98733e-006,0.267821
-8.00205e-006,0.267828
-7.87074e-006,0.267766
-7.78738e-006,0.267726
-7.96899e-006,0.267812
-7.83768e-006,0.26775
-8.26608e-006,0.267953
-8.15107e-006,0.267899
-8.26655e-006,0.267953
-7.97039e-006,0.267813
-7.95258e-006,0.267805
-7.77097e-006,0.267719
-7.58936e-006,0.267633
-7.73744e-006,0.267703
-7.52324e-006,0.267601
-7.42359e-006,0.267554
-6.99518e-006,0.267351
-6.6152e-006,0.267171
-6.28365e-006,0.267013
-6.01915e-006,0.266889
-6.18307e-006,0.266966
-6.34884e-006,0.267044
-6.81078e-006,0.267264
-7.20752e-006,0.267452
-7.52231e-006,0.2676
-7.73744e-006,0.267702
-7.80357e-006,0.267734
-8.2804e-006,0.267961
-8.48064e-006,0.268055
-8.87738e-006,0.268243
-8.87827e-006,0.268243
-9.01052e-006,0.268306
-8.74602e-006,0.268181
-8.21703e-006,0.267931
-8.00283e-006,0.267829
-7.58932e-006,0.267633
-7.39095e-006,0.267539
-6.99421e-006,0.267351
-6.8452e-006,0.26728
-6.74601e-006,0.267233
-6.5644e-006,0.267147
-6.53087e-006,0.267131
-6.48128e-006,0.267108
-6.81097e-006,0.267264
-6.77884e-006,0.267249
-7.24077e-006,0.267467
-7.55556e-006,0.267617
-7.95231e-006,0.267805
-8.4962e-006,0.268062
-8.82775e-006,0.268219
-9.09224e-006,0.268345
-8.99446e-006,0.268299
-9.10947e-006,0.268353
-9.20866e-006,0.2684
-9.10994e-006,0.268353
-9.09329e-006,0.268345
-8.86232e-006,0.268236
-8.64719e-006,0.268134
-8.17035e-006,0.267907
-7.80527e-006,0.267735
-7.50725e-006,0.267593
-7.35824e-006,0.267523
-7.45649e-006,0.26757
-7.50609e-006,0.267593
-7.95126e-006,0.267804
-7.95247e-006,0.267805
-8.16667e-006,0.267906
-8.1839e-006,0.267914
-8.51359e-006,0.268071
-8.81161e-006,0.268212
-9.05934e-006,0.268329
-9.32384e-006,0.268454
-9.07797e-006,0.268338
-9.12616e-006,0.268361
-8.91196e-006,0.268259
-8.69682e-006,0.268157
-8.49845e-006,0.268063
-8.36621e-006,0.268001
-8.36578e-006,0.268001
-8.2177e-006,0.267931
-8.59581e-006,0.26811
-8.72899e-006,0.268173
-8.97673e-006,0.26829
-8.81281e-006,0.268212
-8.71316e-006,0.268165
-8.79558e-006,0.268204
-8.69686e-006,0.268158
-8.91107e-006,0.268259
-8.96089e-006,0.268283
-9.01049e-006,0.268306
-8.63051e-006,0.268127
-7.88917e-006,0.267774
-7.67218e-006,0.267672
-7.32572e-006,0.267508
-7.47287e-006,0.267577
-7.45657e-006,0.26757
-7.67078e-006,0.267671
-7.77043e-006,0.267718
-7.83655e-006,0.26775
-8.13271e-006,0.267891
-8.1837e-006,0.267914
-8.87661e-006,0.268242
-9.10944e-006,0.268353
-9.6049e-006,0.268588
-1.00352e-005,0.268792
-1.01674e-005,0.268854
-1.02007e-005,0.26887
-9.88779e-006,0.268722
-9.58977e-006,0.268581
-9.01235e-006,0.268307
-8.82888e-006,0.26822
-8.35204e-006,0.267993
-8.08568e-006,0.267868
-7.91991e-006,0.267789
-7.39092e-006,0.267539
-7.52223e-006,0.267601
-7.39092e-006,0.267538
-7.539e-006,0.267609
-7.50617e-006,0.267593
-7.9681e-006,0.267812
-8.54552e-006,0.268086
-9.05961e-006,0.26833
-9.52155e-006,0.268549
-9.53948e-006,0.268557
-9.80397e-006,0.268682
-9.63913e-006,0.268604
-9.44076e-006,0.26851
-9.29175e-006,0.26844
-9.1269e-006,0.268361
-9.09337e-006,0.268345
-8.58301e-006,0.268103
-8.31665e-006,0.267977
-7.7057e-006,0.267687
-7.42444e-006,0.267555
-7.22514e-006,0.26746
-7.12595e-006,0.267413
-7.45564e-006,0.26757
-7.57206e-006,0.267624
-1.08056e-005,0.267781
-1.0875e-005,0.267813
-1.09411e-005,0.267844
-1.10403e-005,0.267891
-1.09416e-005,0.267844
-1.11232e-005,0.26793
-1.10077e-005,0.267875
-1.13542e-005,0.26804
-1.13055e-005,0.268016
-1.14042e-005,0.268063
-1.1388e-005,0.268055
-1.11403e-005,0.267938
-1.13051e-005,0.268016
-1.13382e-005,0.268032
-1.1897e-005,0.268297
-1.19664e-005,0.26833
-1.21974e-005,0.268439
-1.2165e-005,0.268424
-1.21154e-005,0.2684
-1.1917e-005,0.268306
-1.14402e-005,0.268079
-1.12558e-005,0.267993
-1.09093e-005,0.267829
-1.08427e-005,0.267797
-1.0595e-005,0.26768
-1.03473e-005,0.267562
-1.01489e-005,0.267468
-9.83412e-006,0.267319
-9.86695e-006,0.267335
-9.96614e-006,0.267382
-1.04281e-005,0.267601
-1.08081e-005,0.267781
-1.11564e-005,0.267945
-1.14209e-005,0.268071
-1.16854e-005,0.268196
-1.21473e-005,0.268415
-1.21319e-005,0.268408
-1.21976e-005,0.268439
-1.22805e-005,0.268478
-1.23797e-005,0.268525
-1.23634e-005,0.268518
-1.20672e-005,0.268378
-1.21482e-005,0.268416
-1.14889e-005,0.268103
-1.10753e-005,0.267907
-1.03303e-005,0.267555
-1.02805e-005,0.267531
-1.0198e-005,0.267491
-9.96707e-006,0.267382
-9.88372e-006,0.267343
-9.71887e-006,0.267264
-9.93308e-006,0.267366
-9.63692e-006,0.267225
-1.00318e-005,0.267412
-1.02963e-005,0.267538
-1.06763e-005,0.267718
-1.10898e-005,0.267914
-1.14865e-005,0.268102
-1.20788e-005,0.268384
-1.21976e-005,0.268439
-1.24788e-005,0.268572
-1.22479e-005,0.268463
-1.22476e-005,0.268463
-1.21815e-005,0.268432
-1.19999e-005,0.268346
-1.18676e-005,0.268283
-1.14057e-005,0.268064
-1.10425e-005,0.267892
-1.05619e-005,0.267664
-1.0018e-005,0.267406
-9.52256e-006,0.267171
-9.2888e-006,0.267061
-9.37076e-006,0.2671
-9.43688e-006,0.267131
-9.81686e-006,0.267311
-1.0262e-005,0.267522
-1.03626e-005,0.26757
-1.05442e-005,0.267656
-1.06932e-005,0.267726
-1.13042e-005,0.268014
-1.15519e-005,0.268134
-1.19319e-005,0.268314
-1.20157e-005,0.268353
-1.21806e-005,0.268431
-1.20334e-005,0.268361
-1.17186e-005,0.268212
-1.14709e-005,0.268095
-1.09605e-005,0.267852
-1.07929e-005,0.267774
-1.04297e-005,0.267602
-1.06103e-005,0.267687
-1.05452e-005,0.267656
-1.04623e-005,0.267617
-1.02639e-005,0.267523
-1.01647e-005,0.267476
-1.02471e-005,0.267515
-1.03133e-005,0.267546
-1.05116e-005,0.26764
-1.06271e-005,0.267695
-1.10239e-005,0.267883
-1.11067e-005,0.267922
-1.10904e-005,0.267914
-1.06788e-005,0.267719
-1.05121e-005,0.26764
-1.00837e-005,0.267437
-1.02299e-005,0.267507
-1.02471e-005,0.267515
-1.0791e-005,0.267772
-1.06937e-005,0.267727
-1.06113e-005,0.267687
-1.04953e-005,0.267633
-1.04952e-005,0.267632
-1.08584e-005,0.267804
-1.08425e-005,0.267797
-1.14013e-005,0.268062
-1.11899e-005,0.267962
-1.14525e-005,0.268086
-1.07633e-005,0.267758
-1.06283e-005,0.267695
-9.95026e-006,0.267375
-9.33931e-006,0.267085
-9.12325e-006,0.266982
-8.92487e-006,0.266889
-9.07295e-006,0.266958
-8.94164e-006,0.266896
-9.08972e-006,0.266966
-9.08996e-006,0.266966
-9.53514e-006,0.267177
-9.58589e-006,0.267201
-1.02304e-005,0.267507
-1.09903e-005,0.267867
-1.12716e-005,0.268001
-1.16851e-005,0.268196
-1.1669e-005,0.268189
-1.13393e-005,0.268032
-1.09761e-005,0.26786
-1.03987e-005,0.267587
-9.83619e-006,0.26732
-9.63595e-006,0.267225
-9.22244e-006,0.267029
-8.89276e-006,0.266873
-8.90801e-006,0.26688
-8.7264e-006,0.266794
-8.51219e-006,0.266692
-8.92384e-006,0.266888
-8.79252e-006,0.266825
-9.15574e-006,0.266997
-9.6661e-006,0.26724
-1.00144e-005,0.267404
-1.01476e-005,0.267468
-1.0346e-005,0.267562
-1.06105e-005,0.267687
-1.02156e-005,0.2675
-7.29496e-006,0.267491
-4.44883e-006,0.267515
3.47858e-006,0.267883
8.57478e-006,0.268234
1.61148e-005,0.268791
2.60091e-005,0.269588
3.89433e-005,0.270359
5.12815e-005,0.271389
6.33813e-005,0.272548
8.00706e-005,0.274265
9.65214e-005,0.276134
0.000112853,0.277996
0.000128708,0.280117
0.000147424,0.282283
0.000163398,0.284374
0.000185571,0.286274
0.000203929,0.288593
0.000222526,0.290775
0.000243745,0.293094
0.000264607,0.295597
0.000284872,0.29842
0.000304065,0.3017
0.000325999,0.305118
0.000346503,0.309116
0.000365934,0.313724
0.000383458,0.319156
0.000405631,0.325229
0.000426135,0.332004
0.000442348,0.339451
0.000463328,0.347446
0.000480137,0.355991
0.000496588,0.364719
0.000514946,0.373874
0.000535808,0.383335
0.000553331,0.392917
0.000573478,0.402622
0.000593386,0.41251
0.000616036,0.422458
0.000635705,0.432407
0.000657997,0.442478
0.000680289,0.45261
0.000705204,0.462864
0.000729642,0.473301
0.000753603,0.483982
0.00077971,0.495029
0.000805578,0.506138
0.000830851,0.517612
0.000855765,0.529209
0.000880323,0.540989
0.000907145,0.553074
0.000933848,0.56522
0.000959478,0.577854
0.000987611,0.590671
0.00101515,0.603855
0.00104245,0.617038
0.00106927,0.630527
0.00109871,0.644138
0.00112792,0.65781
0.00115915,0.671909
0.00118717,0.686191
0.00121733,0.70084
0.00124713,0.715671
0.00127955,0.730503
0.001309,0.745517
0.00134429,0.760532
0.00137278,0.775913
0.00140425,0.791355
0.001435,0.80698
0.001466,0.822605
0.00150248,0.838352
0.00153299,0.854221
0.00156613,0.870212
0.00159904,0.886326
0.00163456,0.902439
0.00166675,0.918918
0.00170418,0.935642
0.00174066,0.952854
0.00177642,0.97031
0.0018117,0.98801
0.00184628,1.00608
0.00188633,1.02426
0.00192281,1.0427
0.00195905,1.06137
0.00199767,1.0803
0.00203558,1.09958
0.00207301,1.11899
0.00211283,1.13864
0.00215002,1.1583
0.00219222,1.1782
0.00223442,1.19809
0.00227304,1.21836
0.00231143,1.23874
0.00235196,1.25949
0.00238915,1.28049
0.00242611,1.30149
0.00246569,1.3226
0.00250574,1.3436
0.00254484,1.36509
0.00258394,1.38645
0.00262257,1.40805
0.00266047,1.43003
0.00270077,1.45224
0.00273701,1.47507
0.00277611,1.49778
0.00281735,1.52097
0.00285526,1.54441
0.00289508,1.56821
0.00293442,1.59226
0.0029728,1.61667
0.00301071,1.64157
0.003051,1.66648
0.00309058,1.69187
0.00312992,1.71714
0.00317164,1.74289
0.00321003,1.76877
0.0032477,1.79502
0.00328823,1.82126
0.00332566,1.84763
0.00336548,1.87424
0.00340482,1.90097
0.00344058,1.92807
0.0034823,1.95517
0.00352355,1.98239
0.00356146,2.00998
0.00360175,2.03769
0.00364157,2.06565
0.00368281,2.09433
0.00372334,2.12339
0.00376006,2.15281
0.0037994,2.18235
0.00384065,2.21225
0.00388165,2.2424
0.00392481,2.27304
0.00396462,2.30368
0.00400373,2.33481
0.00404283,2.36582
0.00408479,2.39695
0.00412365,2.42807
0.00416299,2.45908
0.00420185,2.49021
0.00424095,2.52121
0.00428506,2.55271
0.00432583,2.5842
0.00436612,2.61618
0.00440594,2.64817
0.0044479,2.68064
0.00448652,2.71335
0.00453039,2.74631
0.00457068,2.77951
0.00461026,2.81296
0.00465246,2.8469
0.00469442,2.88059
0.00473686,2.91428
0.00477906,2.94797
0.00482174,2.98142
0.00486394,3.01511
0.00490685,3.04856
0.00494929,3.08225
0.00499459,3.11594
0.00503655,3.14963
0.00508415,3.18374
0.00512826,3.21768
0.00517404,3.25259
0.00522267,3.28726
0.00526726,3.32266
0.00531399,3.3583
0.00536286,3.39443
0.00541079,3.43081
0.00545561,3.46768
0.00550258,3.50454
0.00554931,3.54165
0.00559508,3.57925
0.0056411,3.6166
0.00568401,3.6542
0.00572955,3.6918
0.00577223,3.7294
0.00582015,3.76724
0.00586497,3.80532
0.00591242,3.84341
0.00595963,3.8815
0.00600683,3.91983
0.00605356,3.9584
0.00610315,3.99673
0.00615227,4.03555
0.00620114,4.07437
0.00624954,4.11343
0.00629794,4.15249
0.0063461,4.19155
0.00639092,4.23086
0.00643861,4.27041
0.00648534,4.31021
0.00653493,4.35
0.00658094,4.39004
0.00663006,4.43032
0.00668132,4.47085
0.00673186,4.51138
0.00677931,4.55239
0.00683248,4.59341
0.00688231,4.63442
0.00693762,4.67568
0.00699031,4.7167
0.00704276,4.75796
0.00709211,4.79946
0.00714123,4.84097
0.00719296,4.88247
0.00724518,4.92373
0.00729692,4.96548
0.00734841,5.00723
0.00739967,5.04898
0.0074507,5.09097
0.00750434,5.13296
0.00755798,5.1752
0.00761115,5.21743
0.00766408,5.25991
0.00772011,5.30215
0.00777304,5.34463
0.00782549,5.38711
0.00788104,5.42959
0.00793302,5.47256
0.00798451,5.51553
0.00803816,5.55899
0.0080918,5.60244
0.00814759,5.64639
0.00820577,5.69033
0.00825727,5.73477
0.00831401,5.77969
0.00837099,5.82412
0.00842678,5.86953
0.00848567,5.91445
0.0085386,5.95962
0.0085951,6.00454
0.00865113,6.04946
0.0087043,6.09463
0.00875771,6.13955
0.0088104,6.18472
0.00886595,6.23013
0.00892102,6.27554
0.00897586,6.32119
0.00903356,6.36685
0.00909054,6.41299
0.00915062,6.45889
0.00920712,6.50503
0.00926339,6.55142
0.00931847,6.59829
0.00937354,6.64517
0.00943195,6.69204
0.00948679,6.73892
0.00954782,6.78579
0.00960767,6.83316
0.00966441,6.88052
0.00972878,6.92861
0.00979363,6.97647
0.00985515,7.02432
0.00992,7.07217
0.00998199,7.11978
0.010044,7.16763
0.010106,7.21548
0.0101649,7.26333
0.0102302,7.31094
0.0102917,7.35879
0.0103527,7.40713
0.010413,7.45547
0.010476,7.5043
0.0105389,7.55288
0.0106009,7.6022
0.0106629,7.65127
0.0107239,7.70059
0.0107855,7.75015
0.010847,7.79946
0.010909,7.84854
0.0109719,7.89736
0.0110372,7.94619
0.011103,7.99502
0.0111688,8.0436
0.011238,8.09219
0.01131,8.14053
0.0113801,8.18862
0.0114516,8.23599
0.0115236,8.28311
0.0115942,8.32974
0.0116657,8.37564
0.0117363,8.4208
0.0118083,8.46499
0.0118846,8.50894
0.0119599,8.55166
0.01204,8.59341
0.0121225,8.63443
0.0122088,8.67471
0.0122927,8.71475
0.0123776,8.75454
0.0124596,8.79409
0.0125426,8.8334
0.0126246,8.87295
0.0127062,8.91275
0.0127867,8.95303
0.0128664,8.99404
0.0129441,9.03555
0.0130228,9.07827
0.0131038,9.121
0.0131801,9.1647
0.0132588,9.20889
0.0133332,9.25357
0.0134071,9.29824
0.0134777,9.34341
0.0135483,9.38833
0.0136188,9.4335
0.0136865,9.47866
0.0137571,9.52359
0.0138253,9.56851
0.0138968,9.61318
0.0139698,9.65689
0.014047,9.70034
0.0141233,9.74258
0.0142039,9.78408
0.0142783,9.82485
0.0143603,9.86465
0.0144409,9.90347
0.0145267,9.94131
0.014613,9.97744
0.0147055,10.0121
0.0148042,10.0451
0.0149039,10.0766
0.0150112,10.1055
0.0151261,10.1311
0.015252,10.1527
0.0153826,10.1706
0.0155209,10.1851
0.0156563,10.1977
0.0157994,10.2085
0.0159434,10.2187
0.0160855,10.2286
0.0162257,10.2393
0.0163621,10.2516
0.0164937,10.2668
0.0166138,10.2855
0.0167307,10.3073
0.0168384,10.332
0.0169429,10.3581
0.0170411,10.3861
0.0171364,10.4152
0.017228,10.4449
0.0173215,10.4751
0.0174144,10.5052
0.0175074,10.5356
0.0176028,10.5662
0.0176967,10.5973
0.0177878,10.6285
0.0178803,10.6605
0.0179752,10.6927
0.0180634,10.7252
0.0181531,10.7584
0.0182375,10.7913
0.0183243,10.8248
0.018411,10.858
0.0184978,10.8912
0.0185813,10.9246
0.018668,10.9579
0.0187515,10.9913
0.0188378,11.025
0.0189236,11.0587
0.019009,11.0924
0.0190948,11.1263
0.0191768,11.1605
0.0192608,11.1949
0.0193413,11.2296
0.0194191,11.2645
0.0195011,11.2999
0.0195779,11.3353
0.0196594,11.3709
0.0197381,11.4068
0.019822,11.4427
0.0199031,11.4788
0.019986,11.515
0.0200695,11.5514
0.0201496,11.5877
0.0202326,11.6244
0.0203155,11.6607
0.0203928,11.6971
0.0204719,11.734
0.0205511,11.7706
0.0206269,11.8077
0.0207046,11.8453
0.020779,11.8831
0.0208582,11.9215
0.0209335,11.96
0.0210108,11.9991
0.021088,12.0384
0.0211638,12.078
0.0212406,12.1175
0.0213131,12.1576
0.0213851,12.1976
0.0214575,12.2379
0.0215291,12.2784
0.0216039,12.3187
0.0216812,12.3592
0.0217584,12.3997
0.0218352,12.4403
0.021912,12.481
0.0219916,12.5221
0.0220679,12.5628
0.0221447,12.6036
0.0222248,12.6441
0.022303,12.6844
0.0223783,12.7245
0.0224575,12.764
0.0225371,12.8036
0.0226163,12.8429
0.0226964,12.8822
0.0227765,12.9215
0.0228566,12.9605
0.0229396,12.9996
0.0230197,13.0389
0.0231026,13.078
0.0231823,13.1175
0.0232624,13.1566
0.023342,13.1959
0.0234259,13.2347
0.023507,13.2735
0.0235914,13.3119
0.0236729,13.3504
0.0237578,13.3888
0.0238489,13.4268
0.0239352,13.4644
0.0240248,13.5018
0.024115,13.5391
0.0241994,13.576
0.0242871,13.6131
0.0243715,13.6502
0.0244535,13.6871
0.0245346,13.7245
0.024619,13.7616
0.0246996,13.7992
0.0247825,13.837
0.0248622,13.8751
0.0249437,13.9134
0.0250248,13.9522
0.0251058,13.9911
0.025184,14.0296
0.0252618,14.0684
0.02534,14.1073
0.0254182,14.1458
0.0254968,14.1844
0.025575,14.2232
0.0256494,14.2623
0.0257295,14.3014
0.0258077,14.3416
0.0258831,14.3829
0.0259584,14.4259
0.0260247,14.4701
0.02609,14.5162
0.0261487,14.5643
0.0262035,14.6141
0.0262514,14.6656
0.0262963,14.7188
0.0263404,14.7735
0.0263795,14.8297
0.0264221,14.8863
0.0264603,14.9442
0.0265001,15.0025
0.0265387,15.0614
0.0265764,15.1204
0.0266157,15.1803
0.0266479,15.2408
0.0266818,15.3021
0.0267137,15.3639
0.0267469,15.4268
0.0267781,15.4903
0.0268079,15.5548
0.0268387,15.6202
0.0268681,15.6861
0.0268986,15.753
0.0269308,15.8204
0.0269618,15.8883
0.0269891,15.9566
0.0270158,16.025
0.0270421,16.0938
0.027068,16.1627
0.027096,16.232
0.0271236,16.3018
0.0271503,16.3717
0.0271794,16.442
0.027208,16.5128
0.027236,16.5831
0.0272664,16.6544
0.0272961,16.7257
0.0273223,16.797
0.0273509,16.8692
0.027379,16.941
0.0274068,17.0133
0.0274367,17.086
0.0274692,17.1588
0.0274979,17.232
0.0275317,17.3053
0.0275656,17.379
0.027599,17.4527
0.0276319,17.5265
0.0276674,17.6007
0.027697,17.6749
0.0277289,17.7491
0.027764,17.8233
0.0277985,17.898
0.0278352,17.9727
0.0278717,18.0479
0.0279103,18.1231
0.0279485,18.1988
0.0279857,18.275
0.0280198,18.3512
0.028056,18.4278
0.0280911,18.505
0.0281228,18.5821
0.028159,18.6602
0.0281914,18.7384
0.0282289,18.8175
0.0282718,18.8961
0.0283083,18.9752
0.0283502,19.0548
0.0283884,19.1349
0.0284234,19.2144
0.0284578,19.295
0.0284947,19.3751
0.0285312,19.4561
0.0285672,19.5367
0.0286025,19.6178
0.0286428,19.6998
0.0286792,19.7818
0.0287174,19.8643
0.0287515,19.9474
0.0287844,20.0313
0.0288187,20.1158
0.0288545,20.2008
0.0288886,20.2867
0.0289241,20.3736
0.0289613,20.461
0.0290023,20.5494
0.0290359,20.6383
0.0290714,20.7276
0.0291055,20.818
0.0291351,20.9093
0.0291666,21.0006
0.0291973,21.0924
0.0292277,21.1842
0.0292602,21.2769
0.0292921,21.3692
0.0293233,21.4625
0.0293541,21.5557
0.0293835,21.6495
0.029415,21.7437
0.0294428,21.8385
0.0294752,21.9337
0.0295072,22.0289
0.0295412,22.1251
0.0295777,22.2208
0.0296142,22.317
0.0296473,22.4132
0.0296802,22.5099
0.0297099,22.6065
0.0297396,22.7027
0.0297694,22.7994
0.0297995,22.8956
0.0298352,22.9923
0.0298679,23.0885
0.0299001,23.1856
0.0299308,23.2828
0.0299601,23.3809
0.0299909,23.4796
0.0300208,23.5792
0.03005,23.6788
0.0300813,23.7784
0.0301154,23.8785
0.0301485,23.9791
0.0301783,24.0802
0.0302014,24.1812
0.0302271,24.2823
0.0302526,24.3839
0.0302784,24.4849
0.0303074,24.586
0.030336,24.6871
0.0303642,24.7887
0.0303917,24.8907
0.0304154,24.9928
0.0304443,25.0953
0.0304691,25.1983
0.0304992,25.3018
0.0305289,25.4054
0.0305604,25.5094
0.030594,25.6139
0.0306266,25.7188
0.0306526,25.8243
0.0306802,25.9303
0.0307097,26.0367
0.0307352,26.1436
0.0307635,26.2511
0.0307945,26.358
0.0308281,26.4654
0.0308579,26.5728
0.030884,26.6812
0.0309117,26.7896
0.0309354,26.899
0.0309673,27.0084
0.0309993,27.1182
0.0310315,27.2276
0.0310665,27.337
0.0311006,27.4469
0.0311314,27.5567
0.0311619,27.6671
0.0311927,27.7769
0.0312236,27.8868
0.0312608,27.9967
0.0312978,28.1065
0.0313312,28.2169
0.0313665,28.3277
0.0313944,28.4391
0.0314261,28.5514
0.0314597,28.6641
0.0314919,28.7779
0.0315291,28.8917
0.0315648,29.0064
0.0315996,29.1217
0.0316302,29.2374
0.0316592,29.3541
0.0316845,29.4708
0.0317153,29.588
0.0317465,29.7047
0.0317767,29.8224
0.0318117,29.94
0.0318394,30.0587
0.0318682,30.1783
0.0318987,30.2979
0.0319309,30.4185
0.0319655,30.5396
0.0320051,30.6607
0.0320408,30.7823
0.0320761,30.9044
0.0321107,31.0265
0.0321448,31.149
0.0321763,31.2716
0.0322134,31.3941
0.0322499,31.5167
0.0322888,31.6397
0.0323236,31.7633
0.032357,31.8873
0.0323954,32.0123
0.0324361,32.1368
0.032474,32.2618
0.0325205,32.3868
0.032558,32.5118
0.0325954,32.6368
0.03263,32.7618
0.0326624,32.8868
0.0326986,33.0108
0.0327389,33.1349
0.0327764,33.2584
0.0328135,33.3824
0.0328467,33.5064
0.0328822,33.6309
0.0329175,33.7559
0.0329587,33.8805
0.0330028,34.0055
0.0330434,34.13
0.0330808,34.255
0.0331171,34.3809
0.0331532,34.507
0.0331861,34.632
0.0332229,34.7579
0.0332627,34.8829
0.0332994,35.0089
0.0333321,35.1349
0.0333666,35.2609
0.0334007,35.3878
0.0334377,35.5148
0.0334775,35.6408
0.0335206,35.7677
0.0335636,35.8947
0.0336005,36.0206
0.0336375,36.1476
0.0336804,36.2746
0.0337245,36.4005
0.0337693,36.5265
0.0338149,36.6515
0.0338573,36.7775
0.0339021,36.9025
0.0339467,37.0285
0.0339941,37.1544
0.0340442,37.2804
0.0340995,37.4074
0.0341486,37.5333
0.0342001,37.6603
0.0342452,37.7872
0.0342929,37.9142
0.0343379,38.0412
0.034389,38.1681
0.0344364,38.2951
0.0344798,38.423
0.0345253,38.5519
0.0345702,38.6798
0.0346202,38.8087
0.0346727,38.9376
0.0347239,39.0675
0.0347716,39.1974
0.034815,39.3283
0.0348606,39.4591
0.0349059,39.59
0.0349562,39.7218
0.0350024,39.8537
0.0350468,39.9874
0.035089,40.1212
0.0351355,40.256
0.0351834,40.3908
0.0352334,40.5265
0.0352878,40.6632
0.035335,40.8009
0.035381,40.9386
0.0354239,41.0763
0.0354697,41.214
0.0355186,41.3517
0.0355677,41.4894
0.0356135,41.6281
0.0356583,41.7658
0.0357088,41.9044
0.0357594,42.0431
0.0358166,42.1808
0.0358762,42.3195
0.0359265,42.4581
0.0359764,42.5968
0.0360233,42.7355
0.0360672,42.8742
0.0361173,43.0128
0.0361673,43.1515
0.0362138,43.2902
0.0362563,43.4298
0.0363011,43.5695
0.0363457,43.7091
0.0363933,43.8488
0.0364413,43.9894
0.0364859,44.129
0.0365269,44.2687
0.0365652,44.4093
0.0366065,44.549
0.0366511,44.6886
0.0366926,44.8292
0.0367331,44.9699
0.0367729,45.1105
0.036818,45.2511
0.0368561,45.3927
0.0369021,45.5353
0.0369477,45.6769
0.0369889,45.8204
0.0370325,45.963
0.0370702,46.1066
0.0371134,46.2501
0.0371596,46.3927
0.0372023,46.5363
0.0372385,46.6808
0.0372807,46.8244
0.0373263,46.9679
0.0373749,47.1115
0.0374271,47.255
0.0374762,47.3986
0.0375249,47.5421
0.0375707,47.6857
0.0376167,47.8283
0.0376655,47.9718
0.0377163,48.1163
0.0377602,48.2609
0.0378024,48.4054
0.0378463,48.5519
0.037892,48.6984
0.0379424,48.8449
0.0379946,48.9923
0.0380392,49.1408
0.0380792,49.2892
0.0381212,49.4396
0.0381629,49.589
0.038207,49.7394
0.0382525,49.8898
0.0382909,50.0412
0.0383334,50.1935
0.0383779,50.3458
0.0384271,50.4982
0.0384812,50.6525
0.0385281,50.8068
0.0385739,50.9611
0.0386192,51.1163
0.0386667,51.2716
0.0387167,51.4269
0.0387639,51.5822
0.0388104,51.7384
0.038856,51.8947
0.0389077,52.0509
0.0389628,52.2062
0.0390162,52.3615
0.0390698,52.5167
0.0391182,52.672
0.0391647,52.8263
0.0392177,52.9806
0.0392649,53.1339
0.0393116,53.2882
0.0393586,53.4425
0.0394079,53.5968
0.0394575,53.7511
0.0395121,53.9064
0.0395662,54.0617
0.0396106,54.2169
0.0396513,54.3722
0.0396945,54.5285
0.039735,54.6837
0.0397818,54.84
0.0398192,54.9962
0.039859,55.1525
0.0398981,55.3087
0.0399463,55.465
0.0399942,55.6212
0.0400414,55.7785
0.040085,55.9357
0.0401318,56.0929
0.0401782,56.2501
0.0402247,56.4074
0.0402736,56.5646
0.0403191,56.7228
0.0403642,56.88
0.0404083,57.0382
0.040461,57.1974
0.0405161,57.3556
0.0405623,57.5148
0.0406079,57.674
0.0406529,57.8331
0.0407011,57.9923
0.0407524,58.1515
0.0407965,58.3107
0.0408394,58.4708
0.0408842,58.632
0.0409343,58.7931
0.0409834,58.9552
0.041037,59.1173
0.0410861,59.2794
0.0411283,59.4435
0.0411717,59.6076
0.0412161,59.7726
0.0412595,59.9386
0.0413019,60.1046
0.0413432,60.2716
0.041392,60.4386
0.0414459,60.6066
0.0414967,60.7746
0.0415465,60.9425
0.041593,61.1115
0.0416421,61.2794
0.0416941,61.4484
0.0417423,61.6173
0.0417933,61.7863
0.0418474,61.9552
0.0419015,62.1242
0.041964,62.2931
0.0420236,62.463
0.0420782,62.631
0.0421273,62.7999
0.0421791,62.9689
0.0422282,63.1369
0.0422782,63.3058
0.0423228,63.4738
0.0423703,63.6417
0.0424244,63.8087
0.0424792,63.9757
0.0425348,64.1427
0.0425875,64.3097
0.0426316,64.4767
0.0426819,64.6427
0.0427319,64.8097
0.0427787,64.9767
0.0428256,65.1437
0.0428719,65.3107
0.0429203,65.4787
0.0429766,65.6466
0.043029,65.8146
0.0430748,65.9835
0.0431199,66.1525
0.0431702,66.3224
0.0432178,66.4913
0.0432691,66.6603
0.0433144,66.8292
0.043363,66.9982
0.0434172,67.1671
0.0434739,67.3361
0.0435299,67.505
0.0435826,67.6749
0.0436322,67.8449
0.0436839,68.0148
0.0437374,68.1857
0.0437831,68.3576
0.0438272,68.5294
0.0438692,68.7033
0.0439181,68.8771
0.0439686,69.0519
0.0440156,69.2277
0.0440556,69.4035
0.0441,69.5802
0.044146,69.757
0.0441873,69.9347
0.0442268,70.1134
0.0442707,70.2931
0.0443165,70.4728
0.044367,70.6535
0.044419,70.8351
0.0444695,71.0167
0.0445156,71.1994
0.0445599,71.3829
0.0446083,71.5675
0.04465,71.7521
0.0446922,71.9367
0.044738,72.1212
0.0447933,72.3048
0.0448491,72.4884
0.0449061,72.672
0.0449519,72.8546
0.0450012,73.0372
0.0450482,73.2189
0.0450982,73.4015
0.0451438,73.5831
0.0451931,73.7638
0.0452425,73.9454
0.0453004,74.1261
0.0453498,74.3078
0.0453932,74.4884
0.0454375,74.6691
0.0454831,74.8488
0.0455322,75.0294
0.0455763,75.2081
0.0456206,75.3878
0.0456685,75.5665
0.0457224,75.7453
0.0457794,75.9249
0.0458335,76.1037
0.0458881,76.2814
0.0459394,76.4601
0.0459957,76.6398
0.0460488,76.8195
0.0460994,76.9982
0.0461528,77.1769
0.0462121,77.3566
0.0462741,77.5353
0.0463311,77.714
0.0463881,77.8937
0.0464477,78.0724
0.0465037,78.2511
0.0465588,78.4308
0.0466134,78.6115
0.0466673,78.7912
0.0467228,78.9718
0.0467832,79.1535
0.046848,79.3361
0.0469005,79.5187
0.0469543,79.7013
0.0470092,79.8849
0.0470652,80.0704
0.0471169,80.256
0.0471677,80.4415
0.0472235,80.6281
0.0472869,80.8156
0.0473468,81.0021
0.0474088,81.1896
0.0474636,81.3781
0.0475225,81.5675
0.0475804,81.757
0.0476393,81.9464
0.0499434,81.0519
0.0559248,78.38
0.0619368,75.7081
0.0679182,73.0363
0.0739607,70.3488
0.0800032,67.63
0.0860762,64.9113
0.0921187,62.1613
0.0980086,59.3956
0.103746,56.5988
0.107133,54.8722
0.106777,54.8981
0.106452,54.9056
0.106155,54.8967
0.105871,54.8806
0.10559,54.8634
0.10531,54.848
0.10503,54.8345
0.104749,54.8225
0.104461,54.8115
0.104173,54.801
0.103883,54.7918
0.103593,54.7843
0.103313,54.7782
0.103034,54.7718
0.102767,54.7653
0.102498,54.7585
0.102233,54.7518
0.10198,54.7451
0.101736,54.7388
0.101491,54.7327
0.101256,54.7257
0.101028,54.7163
0.10081,54.7041
0.100604,54.6885
0.100406,54.6687
0.100223,54.6445
0.100056,54.6159
0.0999026,54.5834
0.0997576,54.548
0.0996203,54.5106
0.0994877,54.4721
0.0993571,54.4328
0.0992355,54.393
0.0991167,54.3534
0.0990023,54.3148
0.0988883,54.2772
0.0987772,54.2411
0.0986671,54.2057
0.0985598,54.1708
0.0984558,54.1351
0.0983524,54.0983
0.098257,54.06
0.0981626,54.0199
0.0980749,53.9782
0.0979952,53.9337
0.0979242,53.8866
0.0978631,53.8361
0.0978121,53.7821
0.0977682,53.7247
0.0977334,53.6644
0.0977063,53.6019
0.0976829,53.537
0.0976617,53.4716
0.097645,53.4052
0.0976289,53.3388
0.0976159,53.2719
0.0976028,53.2055
0.097592,53.1391
0.0975864,53.0726
0.0975768,53.0072
0.0975717,52.9423
0.0975653,52.8783
0.0975578,52.8143
0.0975522,52.7509
0.0975462,52.6879
0.0975428,52.6249
0.0975356,52.5624
0.0975273,52.5006
0.097518,52.4391
0.0975103,52.3781
0.0975019,52.3178
0.0974956,52.2575
0.0974891,52.1976
0.0974875,52.1381
0.0974821,52.0788
0.0974755,52.0202
0.0974734,51.9623
0.097467,51.9049
0.0974625,51.8483
0.0974571,51.7919
0.0974541,51.7357
0.0974479,51.6798
0.0974465,51.6244
0.0974411,51.5695
0.0974344,51.515
0.0974291,51.4616
0.0974251,51.4088
0.0974198,51.3566
0.0974158,51.3051
0.0974136,51.2543
0.0974101,51.204
0.0974079,51.1544
0.0974043,51.1059
0.097402,51.0578
0.0973956,51.0104
0.0973937,50.9635
0.0973913,50.9169
0.0973882,50.8707
0.0973874,50.8248
0.0973859,50.7792
0.0973804,50.734
0.097377,50.6893
0.0973754,50.6454
0.0973702,50.6015
0.097367,50.558
0.0973665,50.5148
0.0973624,50.4718
0.0973604,50.4293
0.0973569,50.3876
0.0973549,50.3463
0.0973484,50.306
0.0973465,50.2663
0.0973435,50.2269
0.097343,50.1879
0.0973388,50.1493
0.0973364,50.1112
0.0973357,50.0736
0.0973336,50.0368
0.0973305,50.0004
0.0973292,49.9645
0.0973272,49.9288
0.0973244,49.8937
0.0973213,49.8588
0.0973203,49.8241
0.0973212,49.7899
0.0973185,49.7562
0.0973143,49.7233
0.0973118,49.6906
0.097308,49.6588
0.0973089,49.6276
0.0973057,49.5967
0.0973042,49.5665
0.0973043,49.537
0.0973057,49.5083
0.0973026,49.4804
0.0973036,49.4531
0.0973003,49.4267
0.0972958,49.4008
0.0972987,49.3755
0.0972977,49.3507
0.0972953,49.3266
0.0972943,49.3032
0.0972948,49.2805
0.0972935,49.2587
0.097291,49.2374
0.0972902,49.2168
0.0972885,49.1965
0.097289,49.1767
0.0972882,49.1574
0.0972861,49.1387
0.0972883,49.1209
0.0972864,49.1035
0.0972858,49.0869
0.0972845,49.0707
0.0972855,49.0548
0.0972827,49.0393
0.0972851,49.0241
0.0972864,49.0095
0.0972864,48.9954
0.0972853,48.9819
0.097286,48.9689
0.0972856,48.9565
0.0972849,48.9442
0.0972862,48.9323
0.0972868,48.9209
0.0972866,48.9097
0.097285,48.8992
0.0972851,48.8894
0.0972872,48.8799
0.0972885,48.8709
0.0972889,48.8623
0.0972888,48.8539
0.0972906,48.846
0.0972915,48.8385
0.0972941,48.8317
0.0972958,48.8252
0.0972996,48.8192
0.0973025,48.8136
0.0973049,48.8082
0.0973067,48.8031
0.0973108,48.7983
0.0973141,48.7939
0.0973193,48.79
0.0973205,48.7866
0.0973239,48.7836
0.0973292,48.781
0.0973313,48.7786
0.097336,48.7763
0.0973406,48.7741
0.0973448,48.7721
0.0973483,48.7704
0.0973514,48.7689
0.0973538,48.7677
0.0973589,48.7667
0.0973607,48.7658
0.097368,48.7651
0.0973723,48.7644
0.0973794,48.7638
0.0973857,48.7636
0.0973944,48.7635
0.0974055,48.7638
0.0974132,48.7643
0.0974234,48.765
0.0974364,48.7657
0.0974494,48.7664
0.097465,48.7673
0.0974775,48.7683
0.0974894,48.7696
0.0975038,48.771
0.0975207,48.7727
0.0975375,48.7744
0.0975545,48.7761
0.0975713,48.7777
0.0975939,48.7794
0.0976134,48.7813
0.0976353,48.7833
0.0976539,48.7856
0.097675,48.788
0.0976956,48.7907
0.0977193,48.7933
0.0977432,48.7958
0.09777,48.7983
0.0977968,48.8008
0.0978238,48.8032
0.0978505,48.8057
0.0978772,48.8083
0.0979067,48.8109
0.0979394,48.8133
0.0979697,48.8155
0.0980002,48.8177
0.0980336,48.8197
0.0980672,48.8217
0.0981008,48.8238
0.0981371,48.8259
0.0981733,48.828
0.0982102,48.8299
0.0982472,48.8317
0.0982875,48.8332
0.0983314,48.8346
0.0983724,48.8358
0.0984136,48.8369
0.0984546,48.8382
0.0984987,48.8393
0.0985433,48.8402
0.0985884,48.8409
0.0986308,48.8415
0.0986797,48.8418
0.0987286,48.842
0.0987777,48.8422
0.0988294,48.8424
0.0988812,48.8427
0.0989331,48.8429
0.0989853,48.843
0.0990376,48.843
0.0990931,48.8429
0.0991456,48.8428
0.0992009,48.8427
0.0992559,48.8429
0.0993105,48.8431
0.099368,48.8434
0.0994197,48.8437
0.0994746,48.8439
0.0995323,48.8441
0.0995897,48.8444
0.0996443,48.8448
0.0997011,48.8454
0.0997573,48.8463
0.0998136,48.8472
0.0998665,48.8483
0.0999226,48.8494
0.0999781,48.8505
0.100034,48.8517
0.100092,48.8531
0.100147,48.8548
0.100201,48.8568
0.100257,48.8591
0.100313,48.8613
0.100367,48.8636
0.100423,48.8659
0.100479,48.8682
0.100539,48.8704
0.100595,48.8727
0.100652,48.8748
0.100712,48.8767
0.100773,48.8782
0.100834,48.8793
0.100899,48.88
0.100966,48.8804
0.101032,48.8806
0.101099,48.8807
0.101165,48.881
0.101234,48.8815
0.101298,48.8823
0.101363,48.8833
0.101431,48.8845
0.101495,48.8857
0.101559,48.8873
0.101622,48.8891
0.101684,48.8913
0.101746,48.8936
0.101811,48.896
0.101873,48.8985
0.101937,48.9011
0.102001,48.9038
0.102065,48.9067
0.102128,48.9101
0.102187,48.9139
0.102248,48.9181
0.102305,48.9226
0.102365,48.9274
0.102427,48.9324
0.102486,48.9376
0.102545,48.9429
0.102606,48.9484
0.102665,48.954
0.102728,48.9598
0.102788,48.9659
0.102851,48.972
0.10291,48.9784
0.102972,48.985
0.103034,48.9918
0.103094,48.9993
0.103152,49.0075
0.103209,49.0165
0.103262,49.0263
0.103318,49.0371
0.10337,49.0486
0.10342,49.0608
0.103468,49.0739
0.103521,49.0879
0.103565,49.1028
0.103611,49.1186
0.103655,49.135
0.103701,49.1524
0.103743,49.1701
0.103787,49.1883
0.10383,49.2067
0.103873,49.2253
0.103918,49.2441
0.10396,49.263
0.104005,49.2819
0.104047,49.3009
0.104093,49.3196
0.104142,49.338
0.104189,49.356
0.104237,49.3739
0.104287,49.3918
0.104336,49.4098
0.104383,49.428
0.104432,49.4462
0.104482,49.4646
0.104531,49.4831
0.104579,49.5017
0.104627,49.5207
0.104674,49.5401
0.104723,49.56
0.104771,49.5802
0.104818,49.601
0.104864,49.6222
0.10491,49.644
0.104957,49.6662
0.105003,49.6888
0.105047,49.7121
0.105091,49.7362
0.105132,49.7613
0.105171,49.7874
0.105213,49.8147
0.105249,49.8433
0.105283,49.8733
0.105314,49.9048
0.105342,49.9378
0.105369,49.9724
0.10539,50.0086
0.10541,50.0464
0.105428,50.0857
0.105442,50.1265
0.10546,50.1682
0.105473,50.211
0.105485,50.2547
0.105496,50.2996
0.105508,50.3457
0.105519,50.3926
0.10553,50.4405
0.10554,50.4893
0.105547,50.5389
0.105557,50.5889
0.105568,50.6399
0.105575,50.6914
0.105583,50.7434
0.10559,50.7962
0.105593,50.8494
0.105601,50.9029
0.105606,50.9568
0.105613,51.011
0.105616,51.0657
0.105621,51.1209
0.105627,51.1768
0.105633,51.2332
0.105639,51.2903
0.105645,51.3479
0.105653,51.4058
0.10566,51.4644
0.105666,51.5232
0.105671,51.5826
0.105681,51.6424
0.105686,51.7027
0.105691,51.7637
0.105695,51.825
0.105701,51.8868
0.105709,51.9488
0.105713,52.0113
0.105722,52.0743
0.105729,52.1382
0.105737,52.2027
0.105744,52.2686
0.105752,52.3345
0.105759,52.4014
0.105771,52.4688
0.10578,52.5362
0.105787,52.604
0.105797,52.6724
0.105805,52.7412
0.10581,52.8106
0.105818,52.8799
0.105825,52.9493
0.105831,53.0196
0.10584,53.0894
0.10585,53.1602
0.10586,53.2315
0.105868,53.3033
0.105879,53.3755
0.105893,53.4483
0.105902,53.5215
0.105912,53.5952
0.105919,53.669
0.105927,53.7437
0.10594,53.8189
0.105952,53.8946
0.105962,53.9712
0.10597,54.0484
0.105984,54.126
0.105999,54.2041
0.106011,54.2827
0.106025,54.3619
0.106033,54.441
0.106043,54.5201
0.106052,54.6001
0.106061,54.6797
0.106072,54.7603
0.10608,54.8404
0.106088,54.9209
0.1061,55.002
0.106109,55.0835
0.10612,55.1651
0.106129,55.2476
0.106137,55.3306
0.106148,55.4141
0.106154,55.4981
0.106163,55.5821
0.10617,55.667
0.106179,55.7525
0.106184,55.8389
0.106192,55.9258
0.106203,56.0137
0.106212,56.1016
0.106221,56.19
0.10623,56.2784
0.106238,56.3672
0.106245,56.4566
0.106251,56.5459
0.106257,56.6358
0.106262,56.7261
0.10627,56.8164
0.10628,56.9073
0.106289,56.9981
0.106298,57.0889
0.106306,57.1807
0.106312,57.273
0.106315,57.3658
0.106319,57.459
0.106325,57.5533
0.106332,57.648
0.106338,57.7432
0.106349,57.8389
0.106362,57.9351
0.106374,58.0323
0.106382,58.1294
0.106389,58.2271
0.106395,58.3252
0.106403,58.4234
0.106412,58.522
0.10642,58.6202
0.106431,58.7188
0.106445,58.8174
0.106458,58.9165
0.106471,59.0157
0.106483,59.1153
0.106493,59.2154
0.106504,59.3155
0.106516,59.416
0.106531,59.5171
0.106548,59.6187
0.106564,59.7202
0.106582,59.8223
0.106602,59.9253
0.106618,60.0284
0.10663,60.1319
0.106641,60.2359
0.106656,60.3399
0.10667,60.4439
0.106687,60.5479
0.106707,60.6519
0.106723,60.7564
0.106742,60.8609
0.106757,60.9659
0.106771,61.0713
0.106788,61.1773
0.106803,61.2832
0.106824,61.3897
0.106847,61.4966
0.10687,61.6035
0.106895,61.7105
0.106917,61.8179
0.106938,61.9253
0.10696,62.0327
0.106982,62.1402
0.107005,62.2466
0.107032,62.3531
0.107062,62.4595
0.107094,62.566
0.107124,62.6724
0.107153,62.7788
0.107186,62.8853
0.107227,62.9903
0.107289,63.0855
0.107528,63.0978
0.107893,63.0482
0.108713,62.7806
0.109632,62.4603
0.110685,62.0775
0.111822,61.6556
0.113058,61.181
0.114393,60.6615
0.115774,60.1107
0.117155,59.5521
0.11836,59.056
0.119451,58.6068
0.120096,58.3607
0.120653,58.1527
0.121093,57.9955
0.121467,57.8636
0.121752,57.7723
0.121956,57.7179
0.122121,57.6803
0.122265,57.6528
0.122391,57.6322
0.122507,57.6169
0.122615,57.6056
0.122713,57.5975
0.122809,57.592
0.122897,57.5886
0.122985,57.587
0.123067,57.5867
0.123147,57.5875
0.123222,57.5892
0.123299,57.5913
0.123371,57.594
0.123443,57.5974
0.123515,57.6017
0.123584,57.6068
0.12365,57.6125
0.123716,57.6185
0.123784,57.6248
0.12385,57.631
0.123916,57.637
0.123985,57.6429
0.124054,57.6488
0.12412,57.6549
0.124186,57.6609
0.124255,57.6671
0.124323,57.6735
0.124393,57.6804
0.12446,57.6873
0.124529,57.6946
0.124594,57.7025
0.12466,57.7112
0.124725,57.7207
0.124785,57.731
0.124844,57.742
0.124901,57.7537
0.124958,57.7657
0.125016,57.7783
0.125072,57.7917
0.125123,57.8062
0.125175,57.8218
0.125222,57.8384
0.12527,57.856
0.125319,57.8743
0.125364,57.8934
0.125408,57.9129
0.125454,57.9332
0.125497,57.9542
0.125543,57.9758
0.125587,57.998
0.125627,58.0207
0.125669,58.0438
0.125714,58.067
0.125756,58.0904
0.1258,58.1141
0.125843,58.1379
0.125886,58.1621
0.125929,58.1865
0.125971,58.211
0.12601,58.2355
0.126053,58.26
0.126095,58.2844
0.126138,58.3088
0.126183,58.3333
0.126224,58.3581
0.126269,58.3831
0.126312,58.4084
0.126356,58.4338
0.126402,58.4592
0.126445,58.4846
0.126491,58.5101
0.126534,58.5356
0.126583,58.5613
0.126627,58.5873
0.126675,58.6135
0.12672,58.6397
0.126767,58.6657
0.126816,58.6916
0.126865,58.7171
0.126914,58.7424
0.126964,58.7673
0.127014,58.7922
0.127065,58.8168
0.127116,58.8413
0.127171,58.8654
0.127226,58.8893
0.127281,58.9132
0.127339,58.9372
0.127392,58.9619
0.127448,58.9871
0.127504,59.0131
0.127557,59.0397
0.127611,59.067
0.127664,59.0945
0.127717,59.1225
0.127772,59.1507
0.127823,59.1794
0.127876,59.2083
0.127927,59.2374
0.127979,59.2665
0.128029,59.2958
0.128079,59.325
0.128132,59.3542
0.128185,59.3835
0.128234,59.4132
0.128288,59.4432
0.128339,59.4733
0.128389,59.5037
0.12844,59.534
0.128494,59.5639
0.128552,59.5933
0.128607,59.622
0.128669,59.6496
0.128733,59.6758
0.128798,59.7005
0.128868,59.723
0.128943,59.743
0.129025,59.7596
0.129117,59.7725
0.129215,59.7813
0.129321,59.7863
0.129437,59.7882
0.129557,59.7876
0.129681,59.785
0.129809,59.7809
0.129938,59.776
0.130071,59.7709
0.130198,59.7659
0.130322,59.7621
0.130445,59.7601
0.130562,59.7599
0.130676,59.761
0.130785,59.7632
0.130891,59.7665
0.130997,59.7703
0.131099,59.7742
0.131205,59.7779
0.131308,59.7815
0.131413,59.784
0.131525,59.7845
0.13164,59.7823
0.131763,59.7763
0.131897,59.7651
0.132047,59.7469
0.132214,59.7197
0.132404,59.6816
0.132618,59.6318
0.13285,59.57
0.13311,59.4963
0.133396,59.4104
0.133701,59.3137
0.134018,59.2082
0.134353,59.0935
0.134706,58.9699
0.135135,58.8078
0.135734,58.5617
0.136341,58.3117
0.136936,58.0647
0.137512,57.8235
0.138069,57.592
0.138603,57.3694
0.13911,57.1555
0.139593,56.9514
0.140031,56.76
0.140367,56.6135
0.140509,56.5576
0.140619,56.5156
0.140718,56.4792
0.140809,56.4465
0.140892,56.4165
0.14097,56.3883
0.141045,56.3617
0.141117,56.337
0.141189,56.3136
0.141252,56.2915
0.141318,56.2709
0.141378,56.2519
0.141433,56.2347
0.141488,56.2195
0.141537,56.206
0.141584,56.1943
0.141626,56.1839
0.141668,56.1748
0.141707,56.1669
0.141748,56.1602
0.141782,56.1545
0.141818,56.1502
0.141848,56.1468
0.141882,56.1446
0.141907,56.1435
0.141937,56.1432
0.141965,56.1437
0.141991,56.1449
0.142016,56.147
0.142039,56.1499
0.142061,56.1536
0.142083,56.1582
0.142104,56.1636
0.142123,56.1696
0.142145,56.1761
0.142165,56.1831
0.142184,56.1908
0.142202,56.1991
0.142221,56.2081
0.142236,56.2178
0.142255,56.2283
0.142273,56.2391
0.142287,56.2504
0.142304,56.2621
0.142322,56.2744
0.142339,56.2873
0.142354,56.301
0.142368,56.3151
0.142384,56.3298
0.142397,56.345
0.142414,56.3606
0.142427,56.3765
0.142443,56.3929
0.142454,56.4098
0.14247,56.4275
0.142485,56.4454
0.142499,56.4639
0.142512,56.4828
0.14253,56.5023
0.142541,56.5221
0.142555,56.5424
0.14257,56.563
0.142584,56.5842
0.142597,56.6062
0.142612,56.6284
0.142626,56.6512
0.142639,56.6746
0.142657,56.6981
0.142671,56.722
0.142684,56.7465
0.1427,56.7714
0.142711,56.7966
0.142725,56.8225
0.142737,56.8486
0.142752,56.8751
0.142766,56.902
0.14278,56.9291
0.142796,56.9565
0.142808,56.9845
0.142824,57.0129
0.14284,57.0417
0.142855,57.0712
0.142869,57.1009
0.142884,57.1312
0.142902,57.1619
0.142917,57.1929
0.142936,57.2241
0.142954,57.2561
0.142969,57.2883
0.142988,57.321
0.143004,57.3542
0.143022,57.3877
0.143039,57.4214
0.143059,57.4551
0.143079,57.4893
0.143098,57.5237
0.143116,57.5586
0.143133,57.5935
0.143156,57.6289
0.143176,57.6641
0.143196,57.6995
0.143215,57.7349
0.143237,57.7705
0.143259,57.8064
0.143283,57.8425
0.143306,57.8794
0.143325,57.9165
0.143346,57.9538
0.14337,57.9914
0.143393,58.0293
0.143419,58.0676
0.143443,58.1064
0.143466,58.1457
0.143492,58.1853
0.143514,58.2251
0.143538,58.2654
0.14356,58.3057
0.143583,58.3459
0.143609,58.3867
0.143632,58.428
0.143656,58.4695
0.143677,58.5115
0.143699,58.5539
0.143727,58.5969
0.143753,58.6404
0.143776,58.6841
0.1438,58.7283
0.143824,58.7732
0.143848,58.8188
0.143872,58.8647
0.143901,58.9111
0.143927,58.958
0.143952,59.0049
0.143976,59.052
0.144,59.0991
0.144025,59.1462
0.144049,59.1938
0.144072,59.2414
0.144095,59.2891
0.144118,59.3369
0.144146,59.3852
0.144168,59.4336
0.144192,59.4824
0.144219,59.5312
0.144247,59.5808
0.144271,59.6309
0.144297,59.6814
0.144324,59.7319
0.144352,59.7827
0.144377,59.8335
0.144403,59.8845
0.144428,59.9358
0.144455,59.9871
0.144478,60.0391
0.144504,60.0911
0.144528,60.1438
0.144555,60.197
0.14458,60.2507
0.144608,60.3049
0.144634,60.3596
0.144659,60.4148
0.144686,60.4705
0.144716,60.5264
0.144742,60.5825
0.144768,60.6389
0.144794,60.6951
0.14482,60.7515
0.144843,60.8076
0.144869,60.8638
0.144894,60.9202
0.144923,60.9766
0.144951,61.0334
0.144978,61.0903
0.145008,61.1475
0.145035,61.2046
0.145067,61.262
0.145097,61.3193
0.145126,61.3769
0.145156,61.4351
0.145181,61.4936
0.145207,61.5525
0.145235,61.6118
0.145267,61.6711
0.145294,61.7307
0.145323,61.7913
0.145353,61.8523
0.145383,61.9141
0.145414,61.9763
0.145444,62.0388
0.145477,62.1013
0.145506,62.1643
0.145535,62.2278
0.145563,62.2913
0.145591,62.3547
0.145622,62.4187
0.145654,62.4831
0.145683,62.5476
0.145711,62.613
0.145741,62.6785
0.145774,62.7439
0.145803,62.8098
0.145838,62.8762
0.145865,62.9426
0.145895,63.01
0.145924,63.0774
0.145948,63.1457
0.145974,63.2141
0.146006,63.283
0.146033,63.3528
0.146062,63.4236
0.146092,63.4944
0.146121,63.5662
0.146151,63.6379
0.146179,63.7107
0.146205,63.7834
0.146232,63.8562
0.146259,63.9289
0.146288,64.0017
0.146314,64.0749
0.146343,64.1482
0.14637,64.2219
0.146397,64.2956
0.146427,64.3699
0.146459,64.4441
0.146488,64.5183
0.146517,64.593
0.146545,64.6677
0.146572,64.7429
0.146599,64.8186
0.146624,64.8953
0.146654,64.9719
0.146683,65.0491
0.146714,65.1267
0.146747,65.2048
0.146779,65.2834
0.14681,65.3625
0.14684,65.4421
0.146869,65.5222
0.1469,65.6028
0.146928,65.6829
0.146956,65.7639
0.146983,65.8445
0.147015,65.926
0.14705,66.0071
0.147078,66.0891
0.147111,66.1716
0.147141,66.2541
0.14717,66.3372
0.147198,66.4202
0.147229,66.5037
0.147258,66.5876
0.147293,66.6716
0.147326,66.7566
0.147362,66.842
0.147396,66.928
0.147434,67.0139
0.147468,67.0998
0.147502,67.1858
0.147536,67.2717
0.147572,67.3577
0.147607,67.4441
0.147644,67.5295
0.147685,67.615
0.147727,67.7004
0.147768,67.7854
0.14781,67.8708
0.147851,67.9558
0.147892,68.0417
0.147932,68.1277
0.147977,68.2136
0.148025,68.3
0.148073,68.3865
0.148117,68.4734
0.148171,68.5593
0.148217,68.6453
0.148265,68.7302
0.148313,68.8152
0.14836,68.8992
0.148412,68.9822
0.148483,69.0544
0.148587,69.1123
0.148702,69.1636
0.14883,69.2112
0.148957,69.2566
0.149089,69.3008
0.149219,69.3447
0.14935,69.3882
0.149481,69.4311
0.149616,69.4744
0.149728,69.5271
0.149809,69.593
0.149879,69.6648
0.149938,69.74
0.149994,69.8166
0.150044,69.8953
0.150095,69.9744
0.150143,70.0539
0.150192,70.1335
0.150241,70.2141
0.150291,70.2952
0.150337,70.3767
0.150382,70.4587
0.150426,70.5417
0.150465,70.6252
0.150509,70.7097
0.150552,70.7942
0.150597,70.8787
0.150645,70.9636
0.150693,71.0486
0.150741,71.1335
0.15079,71.218
0.150833,71.3025
0.150883,71.3865
0.150931,71.4695
0.150984,71.552
0.151038,71.634
0.151094,71.7156
0.151156,71.7961
0.151213,71.8767
0.151274,71.9568
0.151332,72.0369
0.151391,72.1164
0.151454,72.1955
0.151517,72.2747
0.151583,72.3538
0.151653,72.4319
0.151723,72.5105
0.151793,72.5891
0.15186,72.6677
0.151924,72.7463
0.151991,72.8245
0.152059,72.9026
0.152127,72.9802
0.1522,73.0579
0.152273,73.1345
0.152347,73.2112
0.152417,73.2869
0.152491,73.3621
0.15257,73.4363
0.152646,73.509
0.15273,73.5808
0.152818,73.6506
0.152916,73.717
0.153046,73.769
0.153236,73.7913
0.153608,73.7253
0.154131,73.5837
0.15471,73.4138
0.155321,73.2302
0.155954,73.0359
0.156606,72.8308
0.157278,72.6179
0.157949,72.3992
0.15859,72.1863
0.15917,71.9958
0.159572,71.887
0.159818,71.8476
0.160018,71.8301
0.160197,71.822
0.160362,71.8211
0.16051,71.8255
0.160654,71.8345
0.160786,71.8478
0.160908,71.8647
0.161023,71.885
0.161133,71.9077
0.161236,71.9322
0.161333,71.9584
0.16143,71.986
0.161522,72.0149
0.161611,72.0447
0.161701,72.0754
0.161787,72.1072
0.161874,72.1394
0.161957,72.1721
0.162039,72.2053
0.162124,72.239
0.162205,72.2727
0.162286,72.3064
0.162369,72.3396
0.162451,72.3728
0.162534,72.4058
0.162617,72.4387
0.162703,72.4717
0.162788,72.5051
0.162869,72.5386
0.162957,72.572
0.163046,72.605
0.163137,72.6367
0.163231,72.6671
0.163329,72.6955
0.163428,72.7219
0.16353,72.7461
0.163637,72.7672
0.163752,72.7847
0.163871,72.7987
0.163998,72.809
0.164132,72.8158
0.164273,72.8193
0.164422,72.8192
0.164578,72.8154
0.164745,72.8062
0.164985,72.7617
0.165374,72.645
0.165823,72.4976
0.166322,72.3257
0.166914,72.106
0.167734,71.7798
0.168642,71.4068
0.169588,71.0122
0.17056,70.606
0.171545,70.1861
0.172479,69.7837
0.173284,69.44
0.174036,69.1118
0.174749,68.7954
0.175378,68.5142
0.175792,68.3286
0.176128,68.1792
0.176433,68.0415
0.176719,67.9107
0.176994,67.7847
0.177251,67.6641
0.177501,67.5484
0.177736,67.4365
0.177967,67.3267
0.178198,67.2163
0.178431,67.1035
0.178674,66.9863
0.178928,66.8638
0.179195,66.7349
0.179472,66.6011
0.179746,66.4663
0.180025,66.3296
0.180299,66.1939
0.18057,66.0591
0.18083,65.9273
0.181078,65.8003
0.181311,65.6792
0.181523,65.5654
0.181715,65.4619
0.181886,65.3662
0.182044,65.2764
0.182188,65.1909
0.182324,65.1099
0.182448,65.0318
0.182563,64.958
0.182672,64.8877
0.18277,64.8203
0.182865,64.7544
0.18296,64.689
0.183057,64.6226
0.183158,64.5542
0.183262,64.4824
0.183377,64.4077
0.183496,64.3296
0.183622,64.2476
0.183755,64.1616
0.183898,64.0718
0.184048,63.9785
0.184199,63.8848
0.184343,63.792
0.184481,63.7022
0.184611,63.6162
0.184729,63.5357
0.184832,63.461
0.184922,63.3921
0.185,63.3296
0.185058,63.2742
0.185104,63.2254
0.185141,63.1812
0.185169,63.1407
0.185192,63.1033
0.185212,63.0684
0.185227,63.0357
0.185238,63.0049
0.185246,62.9759
0.185254,62.9483
0.185259,62.9219
0.185264,62.897
0.185264,62.8732
0.185265,62.8504
0.185263,62.8286
0.185266,62.8078
0.185264,62.7879
0.185263,62.7686
0.185263,62.75
0.185262,62.7325
0.185259,62.7156
0.185258,62.6995
0.185254,62.6841
0.18525,62.6696
0.185247,62.6556
0.185243,62.6419
0.185241,62.6288
0.185238,62.6161
0.185238,62.6038
0.185236,62.5918
0.185234,62.5802
0.185234,62.5689
0.185231,62.5577
0.185234,62.5468
0.185232,62.5362
0.185234,62.5257
0.185237,62.5155
0.185241,62.5055
0.185244,62.4956
0.185249,62.4861
0.185254,62.4768
0.185258,62.4674
0.185266,62.4583
0.185273,62.449
0.185281,62.4397
0.185294,62.4306
0.185301,62.4215
0.185314,62.4127
0.185326,62.4039
0.185339,62.395
0.185351,62.386
0.185367,62.3771
0.18538,62.368
0.185396,62.3589
0.185415,62.3498
0.185431,62.3407
0.18545,62.3313
0.185467,62.3216
0.185488,62.3114
0.185511,62.3007
0.185534,62.2893
0.18556,62.277
0.185588,62.2635
0.185622,62.2484
0.185661,62.2311
0.185705,62.2109
0.18576,62.1871
0.185821,62.159
0.185896,62.1261
0.185982,62.0873
0.186079,62.0431
0.186189,61.994
0.186307,61.9413
0.18643,61.8861
0.186556,61.8292
0.186682,61.7716
0.186809,61.7145
0.186932,61.659
0.187047,61.6065
0.187154,61.558
0.187251,61.5135
0.187341,61.4728
0.187424,61.4354
0.187502,61.401
0.187574,61.3687
0.187639,61.3387
0.187702,61.311
0.187762,61.2853
0.187818,61.261
0.187871,61.2381
0.187921,61.2165
0.187969,61.196
0.188015,61.1766
0.18806,61.1581
0.188105,61.1405
0.188145,61.1238
0.188187,61.1078
0.18823,61.0926
0.188269,61.0782
0.188306,61.0644
0.188345,61.0512
0.188383,61.0385
0.188416,61.0265
0.188452,61.015
0.188486,61.0042
0.188522,60.9939
0.188553,60.9842
0.188587,60.9748
0.188621,60.9657
0.188656,60.9571
0.18869,60.9488
0.188721,60.941
0.188757,60.9334
0.188789,60.9264
0.18882,60.9198
0.188854,60.9135
0.188886,60.9076
0.188918,60.902
0.18895,60.8967
0.188983,60.8918
0.189012,60.8874
0.189044,60.8835
0.189074,60.8799
0.189108,60.8765
0.189138,60.8732
0.189173,60.8702
0.189205,60.8673
0.189237,60.8647
0.189271,60.8624
0.189304,60.8603
0.189337,60.8584
0.189372,60.8567
0.189408,60.855
0.18944,60.8535
0.189475,60.8521
0.189516,60.8508
0.18955,60.8497
0.189587,60.8486
0.189624,60.8478
0.189663,60.8469
0.1897,60.8459
0.189737,60.845
0.189779,60.844
0.189819,60.8432
0.189858,60.8425
0.189897,60.842
0.189936,60.8415
0.189977,60.8412
0.190021,60.841
0.190062,60.8408
0.190103,60.8408
0.190146,60.841
0.190186,60.8414
0.190228,60.842
0.19027,60.8427
0.190312,60.8436
0.190354,60.8445
0.190398,60.8456
0.190442,60.8468
0.190486,60.8481
0.190526,60.8496
0.190573,60.8512
0.190615,60.853
0.190661,60.8549
0.190706,60.8569
0.190751,60.859
0.190799,60.8611
0.190844,60.8633
0.190892,60.8656
0.190939,60.8681
0.190982,60.8709
0.191032,60.8738
0.191077,60.8769
0.191126,60.8802
0.191171,60.8837
0.191218,60.8877
0.191264,60.8922
0.191311,60.8974
0.191357,60.9035
0.191397,60.9106
0.19144,60.9194
0.191478,60.9304
0.191509,60.9438
0.191537,60.9597
0.191559,60.9782
0.191577,60.9991
0.191594,61.0219
0.191603,61.0471
0.191614,61.0738
0.191617,61.102
0.191621,61.1312
0.191623,61.1607
0.191629,61.1902
0.191637,61.22
0.191645,61.2501
0.191652,61.2802
0.191658,61.311
0.191667,61.3417
0.191675,61.373
0.191681,61.405
0.19169,61.4372
0.191697,61.4701
0.191703,61.5038
0.191711,61.5378
0.191721,61.5724
0.191727,61.6074
0.191735,61.643
0.191742,61.6789
0.191751,61.7153
0.191759,61.7521
0.191766,61.7895
0.191772,61.8271
0.191781,61.8649
0.191789,61.903
0.191798,61.9411
0.191808,61.9794
0.191818,62.0182
0.191827,62.0573
0.191835,62.0969
0.191846,62.1369
0.191858,62.1772
0.19187,62.2177
0.191881,62.259
0.191893,62.3005
0.191905,62.3427
0.191918,62.3854
0.19193,62.4286
0.191942,62.4723
0.191958,62.5163
0.191973,62.5607
0.191985,62.6054
0.192003,62.6503
0.192017,62.6952
0.192031,62.7404
0.192045,62.7861
0.192061,62.8315
0.192074,62.8774
0.192092,62.9235
0.192106,62.9697
0.192123,63.0163
0.19214,63.0629
0.192158,63.1103
0.192173,63.1579
0.192189,63.2062
0.192211,63.2546
0.192228,63.3036
0.192249,63.3527
0.192269,63.4018
0.192286,63.4511
0.192306,63.5007
0.192325,63.5505
0.192346,63.6005
0.192365,63.6506
0.192382,63.7011
0.192402,63.7516
0.192425,63.8024
0.192445,63.8532
0.192469,63.9045
0.19249,63.9562
0.192517,64.008
0.192539,64.0602
0.192564,64.113
0.192588,64.1657
0.192612,64.2189
0.192639,64.2719
0.192665,64.3251
0.192692,64.3783
0.192717,64.4318
0.192743,64.4855
0.192768,64.5392
0.192796,64.5929
0.192824,64.6469
0.192852,64.7009
0.192879,64.7551
0.192906,64.8097
0.192935,64.8644
0.192966,64.9199
0.192999,64.9753
0.193026,65.0309
0.193055,65.0868
0.193085,65.143
0.19311,65.1994
0.193141,65.2558
0.193169,65.3129
0.193195,65.3703
0.193226,65.4284
0.193256,65.4872
0.193284,65.5463
0.193315,65.6059
0.193344,65.6662
0.193375,65.7267
0.193406,65.7878
0.193435,65.8493
0.193464,65.9113
0.193495,65.9736
0.19352,66.0361
0.193547,66.0986
0.193574,66.1611
0.193604,66.2241
0.193636,66.287
0.193664,66.351
0.193694,66.415
0.193724,66.4794
0.193753,66.5439
0.193785,66.6083
0.193816,66.6733
0.193844,66.7382
0.193874,66.8041
0.193902,66.87
0.193933,66.9369
0.193963,67.0038
0.193997,67.0717
0.194028,67.1396
0.194061,67.2079
0.194096,67.2763
0.194131,67.3451
0.194166,67.414
0.1942,67.4828
0.194234,67.5522
0.194269,67.621
0.194303,67.6904
0.194338,67.7592
0.194373,67.8276
0.194411,67.8964
0.194451,67.9653
0.194492,68.0341
0.194532,68.103
0.194575,68.1723
0.194615,68.2411
0.194651,68.311
0.19469,68.3803
0.194732,68.4501
0.194776,68.52
0.194819,68.5903
0.194865,68.6611
0.19491,68.7319
0.194955,68.8027
0.195004,68.8735
0.19505,68.9438
0.195096,69.0136
0.195141,69.0834
0.195182,69.1537
0.195223,69.2236
0.195268,69.2934
0.195315,69.3632
0.195359,69.4325
0.195407,69.5024
0.195455,69.5717
0.195505,69.6415
0.195549,69.7118
0.195596,69.7817
0.195642,69.852
0.195688,69.9223
0.195734,69.9931
0.195783,70.0634
0.195831,70.1342
0.195882,70.205
0.195934,70.2758
0.195984,70.3466
0.196035,70.4179
0.196082,70.4887
0.19613,70.5595
0.196178,70.6308
0.196226,70.7016
0.19627,70.7724
0.196318,70.8437
0.196368,70.915
0.196418,70.9867
0.19647,71.058
0.196519,71.1298
0.196563,71.2011
0.19661,71.2724
0.19666,71.3442
0.19671,71.415
0.196766,71.4863
0.196816,71.5575
0.196872,71.6288
0.196929,71.6996
0.196987,71.77
0.197049,71.8393
0.197107,71.9086
0.197168,71.977
0.197229,72.0449
0.197293,72.1117
0.197361,72.1777
0.197433,72.2421
0.197505,72.3056
0.197581,72.3681
0.197661,72.4301
0.197738,72.4909
0.197818,72.5507
0.197898,72.61
0.197983,72.6684
0.198071,72.726
0.19816,72.7824
0.198256,72.8371
0.198356,72.8901
0.198463,72.9408
0.198571,72.9894
0.198683,73.0351
0.198805,73.0761
0.198939,73.1108
0.199092,73.1354
0.19928,73.144
0.19954,73.1171
0.199883,73.0497
0.200288,72.954
0.200753,72.826
0.20134,72.6376
0.202069,72.3837
0.20292,72.0633
0.203973,71.6454
0.205262,71.1141
0.207764,69.9891
